주파수 (Hz)	레벨 (dB)
23.437500	-88.633171
46.875000	-73.945595
70.312500	-60.742443
93.750000	-54.284401
117.187500	-52.496017
140.625000	-51.893845
164.062500	-51.778744
187.500000	-50.126789
210.937500	-47.378052
234.375000	-45.656681
257.812500	-49.584877
281.250000	-51.565277
304.687500	-50.957527
328.125000	-47.575207
351.562500	-43.599613
375.000000	-46.355774
398.437500	-47.232376
421.875000	-47.829258
445.312500	-49.579021
468.750000	-47.431835
492.187500	-52.517155
515.625000	-51.415344
539.062500	-50.120358
562.500000	-50.055725
585.937500	-49.154232
609.375000	-49.832603
632.812500	-50.637218
656.250000	-55.063599
679.687500	-53.961506
703.125000	-51.031185
726.562500	-54.663067
750.000000	-57.168041
773.437500	-55.701195
796.875000	-55.377552
820.312500	-56.246868
843.750000	-56.817451
867.187500	-62.574059
890.625000	-62.872887
914.062500	-63.280659
937.500000	-59.365841
960.937500	-62.531586
984.375000	-60.274399
1007.812500	-63.762115
1031.250000	-61.817425
1054.687500	-58.279312
1078.125000	-62.942055
1101.562500	-61.378891
1125.000000	-63.568851
1148.437500	-67.902954
1171.875000	-63.296215
1195.312500	-64.741058
1218.750000	-62.117619
1242.187500	-59.857296
1265.625000	-63.072430
1289.062500	-71.264328
1312.500000	-68.256187
1335.937500	-68.378395
1359.375000	-68.979515
1382.812500	-62.848213
1406.250000	-60.713177
1429.687500	-65.000336
1453.125000	-71.534615
1476.562500	-68.853943
1500.000000	-69.427483
1523.437500	-74.995125
1546.875000	-68.858620
1570.312500	-61.796402
1593.750000	-62.719402
1617.187500	-70.573738
1640.625000	-68.495461
1664.062500	-65.550812
1687.500000	-65.384254
1710.937500	-73.294769
1734.375000	-74.144463
1757.812500	-66.947372
1781.250000	-66.831490
1804.687500	-73.712242
1828.125000	-74.537453
1851.562500	-68.022537
1875.000000	-62.456726
1898.437500	-64.802895
1921.875000	-72.585205
1945.312500	-73.334076
1968.750000	-69.890457
1992.187500	-68.754898
2015.625000	-72.483208
2039.062500	-79.052238
2062.500000	-76.343246
2085.937500	-69.304680
2109.375000	-65.508995
2132.812500	-67.720306
2156.250000	-77.284508
2179.687500	-78.517296
2203.125000	-74.522346
2226.562500	-72.114342
2250.000000	-73.464111
2273.437500	-79.946449
2296.875000	-79.923309
2320.312500	-76.132553
2343.750000	-72.397560
2367.187500	-69.854218
2390.625000	-71.022057
2414.062500	-78.569283
2437.500000	-82.737152
2460.937500	-78.401077
2484.375000	-74.196548
2507.812500	-70.096107
2531.250000	-68.983185
2554.687500	-76.853424
2578.125000	-81.675598
2601.562500	-81.455002
2625.000000	-80.887436
2648.437500	-81.500725
2671.875000	-79.209305
2695.312500	-80.382866
2718.750000	-81.752602
2742.187500	-76.264702
2765.625000	-75.105988
2789.062500	-72.764252
2812.500000	-73.616890
2835.937500	-74.790718
2859.375000	-78.577637
2882.812500	-83.506958
2906.250000	-83.529999
2929.687500	-82.105545
2953.125000	-76.424271
2976.562500	-76.578438
3000.000000	-79.792847
3023.437500	-83.135239
3046.875000	-86.007385
3070.312500	-85.014526
3093.750000	-78.483612
3117.187500	-81.087463
3140.625000	-82.723854
3164.062500	-77.746582
3187.500000	-73.006706
3210.937500	-72.253174
3234.375000	-79.679131
3257.812500	-91.479454
3281.250000	-86.285149
3304.687500	-86.951950
3328.125000	-84.297585
3351.562500	-84.522049
3375.000000	-86.276939
3398.437500	-82.493378
3421.875000	-83.447800
3445.312500	-89.847015
3468.750000	-91.407928
3492.187500	-87.274223
3515.625000	-88.154373
3539.062500	-86.706978
3562.500000	-82.555794
3585.937500	-82.826675
3609.375000	-81.019485
3632.812500	-81.870689
3656.250000	-90.098129
3679.687500	-91.791161
3703.125000	-90.047379
3726.562500	-93.113907
3750.000000	-90.771179
3773.437500	-89.219116
3796.875000	-89.140846
3820.312500	-83.591187
3843.750000	-81.720139
3867.187500	-83.948685
3890.625000	-93.921532
3914.062500	-97.454735
3937.500000	-93.158981
3960.937500	-93.909248
3984.375000	-95.266556
4007.812500	-93.968643
4031.250000	-94.265396
4054.687500	-91.996590
4078.125000	-92.157600
4101.562500	-94.057724
4125.000000	-97.746651
4148.437500	-99.207893
4171.875000	-92.444435
4195.312500	-88.513924
4218.750000	-93.344070
4242.187500	-92.682953
4265.625000	-92.423203
4289.062500	-93.946709
4312.500000	-89.835182
4335.937500	-85.141685
4359.375000	-88.905289
4382.812500	-97.291519
4406.250000	-95.989922
4429.687500	-97.429527
4453.125000	-100.178993
4476.562500	-95.428062
4500.000000	-92.985687
4523.437500	-94.718491
4546.875000	-95.113106
4570.312500	-96.125053
4593.750000	-94.055946
4617.187500	-95.937584
4640.625000	-99.200905
4664.062500	-99.820862
4687.500000	-97.257355
4710.937500	-99.136459
4734.375000	-93.748871
4757.812500	-93.097977
4781.250000	-97.726021
4804.687500	-97.844292
4828.125000	-92.024330
4851.562500	-87.803841
4875.000000	-89.473984
4898.437500	-92.591125
4921.875000	-90.574074
4945.312500	-91.946121
4968.750000	-101.380905
4992.187500	-102.825836
5015.625000	-100.736015
5039.062500	-96.135880
5062.500000	-91.794533
5085.937500	-94.426163
5109.375000	-100.781021
5132.812500	-95.227264
5156.250000	-91.512253
5179.687500	-92.003517
5203.125000	-98.534149
5226.562500	-101.014153
5250.000000	-101.205910
5273.437500	-104.465042
5296.875000	-107.781006
5320.312500	-105.730637
5343.750000	-103.148277
5367.187500	-99.410416
5390.625000	-101.342285
5414.062500	-104.700134
5437.500000	-104.917969
5460.937500	-104.282623
5484.375000	-101.576042
5507.812500	-103.937752
5531.250000	-103.487053
5554.687500	-100.598045
5578.125000	-103.964981
5601.562500	-103.057480
5625.000000	-102.827759
5648.437500	-108.523911
5671.875000	-107.344971
5695.312500	-101.224304
5718.750000	-97.929787
5742.187500	-99.904175
5765.625000	-104.771019
5789.062500	-107.409935
5812.500000	-101.758759
5835.937500	-100.033829
5859.375000	-103.232285
5882.812500	-105.007843
5906.250000	-102.061005
5929.687500	-103.077934
5953.125000	-106.376801
5976.562500	-105.864166
6000.000000	-105.950668
6023.437500	-110.200935
6046.875000	-111.210258
6070.312500	-106.882111
6093.750000	-104.393082
6117.187500	-107.688927
6140.625000	-107.484131
6164.062500	-96.911209
6187.500000	-94.965294
6210.937500	-101.569778
6234.375000	-110.642387
6257.812500	-111.619926
6281.250000	-104.854088
6304.687500	-101.588043
6328.125000	-106.266724
6351.562500	-106.525742
6375.000000	-103.478355
6398.437500	-106.225342
6421.875000	-110.551384
6445.312500	-108.363449
6468.750000	-105.031784
6492.187500	-107.076134
6515.625000	-109.805702
6539.062500	-112.264229
6562.500000	-109.356476
6585.937500	-102.605507
6609.375000	-103.137489
6632.812500	-111.165710
6656.250000	-112.687218
6679.687500	-108.731384
6703.125000	-108.899353
6726.562500	-109.303452
6750.000000	-110.936424
6773.437500	-107.177513
6796.875000	-107.850021
6820.312500	-111.695305
6843.750000	-112.464272
6867.187500	-114.571411
6890.625000	-112.314819
6914.062500	-112.456909
6937.500000	-112.250267
6960.937500	-103.226700
6984.375000	-102.216728
7007.812500	-106.697090
7031.250000	-101.959824
7054.687500	-105.409348
7078.125000	-114.657211
7101.562500	-115.621750
7125.000000	-113.303772
7148.437500	-113.295624
7171.875000	-113.865562
7195.312500	-113.856773
7218.750000	-114.690842
7242.187500	-116.388283
7265.625000	-112.608818
7289.062500	-114.241119
7312.500000	-118.752441
7335.937500	-116.378433
7359.375000	-117.224701
7382.812500	-112.407593
7406.250000	-111.420280
7429.687500	-114.689964
7453.125000	-114.323402
7476.562500	-111.024208
7500.000000	-109.309311
7523.437500	-110.380569
7546.875000	-115.554665
7570.312500	-117.546829
7593.750000	-114.247299
7617.187500	-113.435547
7640.625000	-118.485031
7664.062500	-119.885452
7687.500000	-119.216461
7710.937500	-116.554718
7734.375000	-114.772141
7757.812500	-113.894539
7781.250000	-113.210495
7804.687500	-114.467339
7828.125000	-115.784752
7851.562500	-114.055931
7875.000000	-117.228500
7898.437500	-118.689507
7921.875000	-116.048828
7945.312500	-116.035187
7968.750000	-110.555367
7992.187500	-108.911545
8015.625000	-110.490875
8039.062500	-115.838196
8062.500000	-117.948746
8085.937500	-116.521980
8109.375000	-116.950356
8132.812500	-118.671379
8156.250000	-117.871918
8179.687500	-117.534340
8203.125000	-116.731316
8226.562500	-118.193031
8250.000000	-118.098732
8273.437500	-117.895638
8296.875000	-115.568672
8320.312500	-112.900810
8343.750000	-115.452591
8367.187500	-119.065788
8390.625000	-119.119247
8414.062500	-115.984848
8437.500000	-114.385323
8460.937500	-114.402817
8484.375000	-117.401115
8507.812500	-118.779747
8531.250000	-116.958176
8554.687500	-114.819252
8578.125000	-116.612289
8601.562500	-118.418388
8625.000000	-119.889374
8648.437500	-120.698761
8671.875000	-119.225441
8695.312500	-119.101105
8718.750000	-118.677650
8742.187500	-118.222588
8765.625000	-119.285637
8789.062500	-119.921173
8812.500000	-118.277855
8835.937500	-119.666794
8859.375000	-120.598602
8882.812500	-118.042908
8906.250000	-117.231941
8929.687500	-120.208626
8953.125000	-121.061790
8976.562500	-119.462059
9000.000000	-116.997704
9023.437500	-118.903336
9046.875000	-121.180550
9070.312500	-120.214409
9093.750000	-117.494995
9117.187500	-116.701302
9140.625000	-120.350288
9164.062500	-122.662788
9187.500000	-122.609665
9210.937500	-122.678169
9234.375000	-121.965752
9257.812500	-121.050217
9281.250000	-120.280014
9304.687500	-119.912704
9328.125000	-120.624718
9351.562500	-119.330910
9375.000000	-118.436241
9398.437500	-119.313942
9421.875000	-117.177803
9445.312500	-117.931992
9468.750000	-121.326653
9492.187500	-119.979324
9515.625000	-119.860527
9539.062500	-122.153267
9562.500000	-121.857300
9585.937500	-122.024094
9609.375000	-121.262367
9632.812500	-120.152840
9656.250000	-120.432396
9679.687500	-120.798294
9703.125000	-120.959290
9726.562500	-122.569420
9750.000000	-123.868126
9773.437500	-123.678375
9796.875000	-123.385216
9820.312500	-123.078033
9843.750000	-121.199409
9867.187500	-121.365860
9890.625000	-123.217033
9914.062500	-123.209686
9937.500000	-122.944878
9960.937500	-122.076393
9984.375000	-121.727554
10007.812500	-122.717941
10031.250000	-122.053490
10054.687500	-120.760178
10078.125000	-120.491158
10101.562500	-121.159126
10125.000000	-121.980225
10148.437500	-121.634323
10171.875000	-122.412323
10195.312500	-121.915512
10218.750000	-121.510818
10242.187500	-119.968040
10265.625000	-117.641220
10289.062500	-118.831596
10312.500000	-120.634926
10335.937500	-121.523155
10359.375000	-122.548065
10382.812500	-122.645332
10406.250000	-122.412041
10429.687500	-122.351486
10453.125000	-122.243202
10476.562500	-124.009804
10500.000000	-124.331573
10523.437500	-124.187569
10546.875000	-123.351608
10570.312500	-122.325317
10593.750000	-122.855095
10617.187500	-124.741150
10640.625000	-124.990913
10664.062500	-124.623436
10687.500000	-125.304878
10710.937500	-125.132118
10734.375000	-124.188187
10757.812500	-122.658463
10781.250000	-122.056122
10804.687500	-124.082176
10828.125000	-125.381584
10851.562500	-125.861115
10875.000000	-125.854294
10898.437500	-124.696106
10921.875000	-123.997658
10945.312500	-125.095100
10968.750000	-125.118744
10992.187500	-124.368004
11015.625000	-124.410370
11039.062500	-124.754150
11062.500000	-124.836502
11085.937500	-124.286057
11109.375000	-124.539177
11132.812500	-125.225945
11156.250000	-125.534859
11179.687500	-124.907318
11203.125000	-124.856155
11226.562500	-125.466415
11250.000000	-125.722107
11273.437500	-126.018784
11296.875000	-125.665756
11320.312500	-125.070900
11343.750000	-124.516670
11367.187500	-123.725777
11390.625000	-123.818527
11414.062500	-123.995834
11437.500000	-124.940521
11460.937500	-125.514824
11484.375000	-125.396187
11507.812500	-125.256729
11531.250000	-125.294708
11554.687500	-124.788879
11578.125000	-124.610718
11601.562500	-124.798843
11625.000000	-124.037247
11648.437500	-124.283318
11671.875000	-124.507355
11695.312500	-124.822594
11718.750000	-124.731705
11742.187500	-125.339531
11765.625000	-125.896111
11789.062500	-125.870422
11812.500000	-125.384407
11835.937500	-125.488541
11859.375000	-125.248978
11882.812500	-124.859390
11906.250000	-123.989243
11929.687500	-125.183601
11953.125000	-125.623398
11976.562500	-125.766701
12000.000000	-126.155861
12023.437500	-126.307091
12046.875000	-125.784111
12070.312500	-124.669014
12093.750000	-125.335426
12117.187500	-126.477402
12140.625000	-126.706467
12164.062500	-126.413612
12187.500000	-125.271317
12210.937500	-125.140854
12234.375000	-125.470909
12257.812500	-125.982208
12281.250000	-126.293159
12304.687500	-126.098457
12328.125000	-126.102409
12351.562500	-126.393852
12375.000000	-125.757393
12398.437500	-125.882713
12421.875000	-126.107849
12445.312500	-125.426323
12468.750000	-125.892578
12492.187500	-126.277122
12515.625000	-126.366005
12539.062500	-126.630463
12562.500000	-126.467209
12585.937500	-125.835876
12609.375000	-125.957626
12632.812500	-126.451485
12656.250000	-126.617432
12679.687500	-126.315552
12703.125000	-126.138618
12726.562500	-126.099068
12750.000000	-126.436760
12773.437500	-126.395523
12796.875000	-126.157310
12820.312500	-125.841942
12843.750000	-125.970718
12867.187500	-126.569885
12890.625000	-126.313957
12914.062500	-126.319412
12937.500000	-125.951447
12960.937500	-125.516975
12984.375000	-126.324181
13007.812500	-126.531967
13031.250000	-126.556030
13054.687500	-126.088440
13078.125000	-126.617249
13101.562500	-126.927940
13125.000000	-126.939598
13148.437500	-126.784279
13171.875000	-126.208717
13195.312500	-125.803543
13218.750000	-126.283577
13242.187500	-126.524544
13265.625000	-126.278175
13289.062500	-126.297890
13312.500000	-126.699455
13335.937500	-126.815964
13359.375000	-126.599464
13382.812500	-126.264290
13406.250000	-126.620247
13429.687500	-126.889519
13453.125000	-126.962524
13476.562500	-126.601646
13500.000000	-126.629807
13523.437500	-127.014465
13546.875000	-127.223785
13570.312500	-126.804268
13593.750000	-126.823227
13617.187500	-126.734390
13640.625000	-126.719070
13664.062500	-126.439903
13687.500000	-126.891785
13710.937500	-127.127640
13734.375000	-127.393768
13757.812500	-127.386032
13781.250000	-126.842270
13804.687500	-126.671051
13828.125000	-126.568726
13851.562500	-126.764839
13875.000000	-127.199677
13898.437500	-126.966949
13921.875000	-126.863548
13945.312500	-127.173569
13968.750000	-127.105942
13992.187500	-127.288994
14015.625000	-127.560402
14039.062500	-127.527954
14062.500000	-127.317230
14085.937500	-127.096146
14109.375000	-126.609360
14132.812500	-126.707420
14156.250000	-127.118073
14179.687500	-127.343353
14203.125000	-127.223854
14226.562500	-127.131622
14250.000000	-127.125160
14273.437500	-127.238770
14296.875000	-127.320145
14320.312500	-127.334496
14343.750000	-127.208481
14367.187500	-126.901337
14390.625000	-127.199585
14414.062500	-127.090240
14437.500000	-126.755463
14460.937500	-127.271255
14484.375000	-127.532394
14507.812500	-127.619400
14531.250000	-127.884804
14554.687500	-127.533508
14578.125000	-127.643494
14601.562500	-127.683495
14625.000000	-127.236313
14648.437500	-127.097389
14671.875000	-127.514748
14695.312500	-127.560043
14718.750000	-127.561371
14742.187500	-127.529251
14765.625000	-127.607948
14789.062500	-127.497757
14812.500000	-127.453949
14835.937500	-127.715439
14859.375000	-127.736641
14882.812500	-127.771240
14906.250000	-127.649689
14929.687500	-127.519196
14953.125000	-127.646500
14976.562500	-127.845367
15000.000000	-127.843071
15023.437500	-127.648407
15046.875000	-127.709335
15070.312500	-127.794769
15093.750000	-127.847328
15117.187500	-127.728905
15140.625000	-127.487381
15164.062500	-126.964668
15187.500000	-126.815544
15210.937500	-127.181259
15234.375000	-127.743607
15257.812500	-127.961250
15281.250000	-128.006592
15304.687500	-128.044861
15328.125000	-127.929024
15351.562500	-127.574783
15375.000000	-127.567337
15398.437500	-127.629021
15421.875000	-127.877792
15445.312500	-127.749771
15468.750000	-127.239655
15492.187500	-127.322678
15515.625000	-127.516739
15539.062500	-127.810989
15562.500000	-127.932358
15585.937500	-127.843651
15609.375000	-127.859985
15632.812500	-127.888397
15656.250000	-128.057800
15679.687500	-128.107803
15703.125000	-128.023514
15726.562500	-127.802658
15750.000000	-127.664406
15773.437500	-127.873260
15796.875000	-128.017792
15820.312500	-127.875099
15843.750000	-128.041565
15867.187500	-127.991898
15890.625000	-128.036057
15914.062500	-127.854736
15937.500000	-127.752838
15960.937500	-127.873924
15984.375000	-127.864441
16007.812500	-127.669518
16031.250000	-127.258423
16054.687500	-127.584709
16078.125000	-127.900055
16101.562500	-127.801926
16125.000000	-128.058075
16148.437500	-128.137100
16171.875000	-128.088013
16195.312500	-128.067093
16218.750000	-128.129181
16242.187500	-128.037262
16265.625000	-127.866508
16289.062500	-127.788391
16312.500000	-127.837807
16335.937500	-127.998749
16359.375000	-127.915833
16382.812500	-127.660706
16406.250000	-127.797493
16429.687500	-127.973160
16453.125000	-128.108231
16476.562500	-128.211166
16500.000000	-128.255997
16523.437500	-128.276855
16546.875000	-128.148880
16570.312500	-128.024521
16593.750000	-128.073242
16617.187500	-128.103165
16640.625000	-128.140747
16664.062500	-128.138779
16687.500000	-128.001022
16710.937500	-128.094391
16734.375000	-128.326157
16757.812500	-128.424622
16781.250000	-128.304031
16804.687500	-128.054504
16828.125000	-128.037582
16851.562500	-128.088913
16875.000000	-128.251846
16898.437500	-128.270569
16921.875000	-128.268188
16945.312500	-128.312958
16968.750000	-128.357758
16992.187500	-128.383514
17015.625000	-128.436768
17039.062500	-128.342239
17062.500000	-128.102173
17085.937500	-128.121689
17109.375000	-128.447372
17132.812500	-128.470139
17156.250000	-128.330139
17179.687500	-128.146606
17203.125000	-127.974716
17226.562500	-128.192352
17250.000000	-128.414993
17273.437500	-128.303238
17296.875000	-128.152725
17320.312500	-128.237503
17343.750000	-128.322052
17367.187500	-128.327515
17390.625000	-128.401443
17414.062500	-128.288422
17437.500000	-128.194534
17460.937500	-128.200821
17484.375000	-128.289932
17507.812500	-128.411682
17531.250000	-128.484497
17554.687500	-128.421051
17578.125000	-128.537552
17601.562500	-128.533554
17625.000000	-128.410080
17648.437500	-128.500565
17671.875000	-128.572800
17695.312500	-128.455566
17718.750000	-128.410751
17742.187500	-128.454422
17765.625000	-128.444489
17789.062500	-128.387436
17812.500000	-128.550354
17835.937500	-128.491165
17859.375000	-128.422668
17882.812500	-128.518356
17906.250000	-128.496536
17929.687500	-128.512115
17953.125000	-128.498581
17976.562500	-128.527969
18000.000000	-128.588806
18023.437500	-128.719528
18046.875000	-128.668320
18070.312500	-128.585907
18093.750000	-128.521484
18117.187500	-128.614120
18140.625000	-128.645294
18164.062500	-128.622040
18187.500000	-128.527130
18210.937500	-128.580765
18234.375000	-128.564697
18257.812500	-128.493896
18281.250000	-128.440704
18304.687500	-128.547379
18328.125000	-128.575058
18351.562500	-128.556534
18375.000000	-128.469406
18398.437500	-128.442810
18421.875000	-128.548035
18445.312500	-128.599716
18468.750000	-128.463669
18492.187500	-128.568741
18515.625000	-128.679825
18539.062500	-128.675629
18562.500000	-128.619827
18585.937500	-128.614899
18609.375000	-128.686768
18632.812500	-128.700485
