주파수 (Hz)	레벨 (dB)
23.437500	-98.335747
46.875000	-90.624954
70.312500	-78.145905
93.750000	-68.601746
117.187500	-63.882545
140.625000	-62.825783
164.062500	-61.887135
187.500000	-62.637444
210.937500	-59.452286
234.375000	-55.341389
257.812500	-57.050686
281.250000	-61.653927
304.687500	-62.810772
328.125000	-59.405872
351.562500	-60.428196
375.000000	-58.782719
398.437500	-58.681259
421.875000	-57.609249
445.312500	-63.421356
468.750000	-60.792839
492.187500	-59.152752
515.625000	-62.715282
539.062500	-66.523064
562.500000	-65.203407
585.937500	-67.616150
609.375000	-60.334705
632.812500	-58.642040
656.250000	-62.541985
679.687500	-65.807083
703.125000	-72.243851
726.562500	-69.292313
750.000000	-67.799171
773.437500	-73.218437
796.875000	-73.598038
820.312500	-65.442078
843.750000	-65.080650
867.187500	-75.478050
890.625000	-79.888794
914.062500	-74.281609
937.500000	-69.165634
960.937500	-66.407227
984.375000	-58.928593
1007.812500	-61.925652
1031.250000	-75.407379
1054.687500	-74.633171
1078.125000	-80.334999
1101.562500	-75.750153
1125.000000	-75.490166
1148.437500	-82.510941
1171.875000	-78.948456
1195.312500	-80.356049
1218.750000	-71.936882
1242.187500	-63.406338
1265.625000	-65.096718
1289.062500	-73.200188
1312.500000	-64.256485
1335.937500	-65.242653
1359.375000	-77.968681
1382.812500	-81.748428
1406.250000	-79.939758
1429.687500	-83.311440
1453.125000	-79.478210
1476.562500	-68.661972
1500.000000	-68.313667
1523.437500	-79.478203
1546.875000	-83.319344
1570.312500	-78.394272
1593.750000	-80.412346
1617.187500	-84.193733
1640.625000	-79.755234
1664.062500	-73.383919
1687.500000	-73.840187
1710.937500	-84.062454
1734.375000	-85.450417
1757.812500	-86.791901
1781.250000	-94.581055
1804.687500	-97.468033
1828.125000	-96.656906
1851.562500	-89.210938
1875.000000	-81.661819
1898.437500	-84.667290
1921.875000	-97.166420
1945.312500	-96.194534
1968.750000	-84.898460
1992.187500	-78.393860
2015.625000	-82.109184
2039.062500	-98.235512
2062.500000	-98.958366
2085.937500	-95.810173
2109.375000	-90.497520
2132.812500	-92.498878
2156.250000	-101.502625
2179.687500	-101.176430
2203.125000	-97.687157
2226.562500	-93.779930
2250.000000	-91.549332
2273.437500	-98.422546
2296.875000	-104.385681
2320.312500	-101.753998
2343.750000	-95.696640
2367.187500	-93.433540
2390.625000	-96.409393
2414.062500	-103.053337
2437.500000	-105.490311
2460.937500	-104.587517
2484.375000	-97.270859
2507.812500	-89.499275
2531.250000	-90.483269
2554.687500	-101.275612
2578.125000	-106.423958
2601.562500	-106.158440
2625.000000	-104.470581
2648.437500	-97.008835
2671.875000	-93.150230
2695.312500	-98.252098
2718.750000	-106.140396
2742.187500	-105.769478
2765.625000	-103.460014
2789.062500	-101.512596
2812.500000	-94.760124
2835.937500	-93.593216
2859.375000	-99.444557
2882.812500	-108.078354
2906.250000	-108.326965
2929.687500	-105.866661
2953.125000	-98.420387
2976.562500	-93.385880
3000.000000	-88.700890
3023.437500	-91.865433
3046.875000	-103.440025
3070.312500	-109.547340
3093.750000	-109.079445
3117.187500	-108.836205
3140.625000	-105.728401
3164.062500	-100.574669
3187.500000	-99.209549
3210.937500	-97.604156
3234.375000	-104.414116
3257.812500	-110.880821
3281.250000	-110.451859
3304.687500	-106.080544
3328.125000	-98.506233
3351.562500	-94.447998
3375.000000	-93.757759
3398.437500	-99.432198
3421.875000	-109.583832
3445.312500	-115.360321
3468.750000	-116.744904
3492.187500	-115.471497
3515.625000	-109.796165
3539.062500	-105.586761
3562.500000	-110.350197
3585.937500	-113.466957
3609.375000	-111.489754
3632.812500	-112.620773
3656.250000	-116.424858
3679.687500	-115.964127
3703.125000	-114.454155
3726.562500	-112.729568
3750.000000	-105.053200
3773.437500	-96.517906
3796.875000	-97.511780
3820.312500	-100.731071
3843.750000	-103.491051
3867.187500	-111.081673
3890.625000	-114.627617
3914.062500	-114.396194
3937.500000	-114.688232
3960.937500	-113.987434
3984.375000	-110.301849
4007.812500	-106.565331
4031.250000	-101.633865
4054.687500	-96.369354
4078.125000	-100.327766
4101.562500	-115.317062
4125.000000	-119.179321
4148.437500	-117.958092
4171.875000	-114.712967
4195.312500	-112.293816
4218.750000	-109.812485
4242.187500	-103.398132
4265.625000	-104.030418
4289.062500	-112.393372
4312.500000	-113.276634
4335.937500	-111.268394
4359.375000	-114.829033
4382.812500	-117.018082
4406.250000	-119.112762
4429.687500	-119.478981
4453.125000	-119.670471
4476.562500	-114.850830
4500.000000	-112.697533
4523.437500	-114.645866
4546.875000	-103.761444
4570.312500	-97.361107
4593.750000	-101.471588
4617.187500	-114.534561
4640.625000	-119.925056
4664.062500	-121.224701
4687.500000	-121.236862
4710.937500	-118.279251
4734.375000	-112.839104
4757.812500	-103.955948
4781.250000	-104.589775
4804.687500	-112.356903
4828.125000	-118.976547
4851.562500	-121.480751
4875.000000	-121.631676
4898.437500	-121.353806
4921.875000	-119.148720
4945.312500	-119.890358
4968.750000	-121.518250
4992.187500	-121.078613
5015.625000	-121.066505
5039.062500	-119.295982
5062.500000	-111.749535
5085.937500	-105.215736
5109.375000	-105.179626
5132.812500	-105.592560
5156.250000	-105.448212
5179.687500	-109.227570
5203.125000	-116.032280
5226.562500	-118.777321
5250.000000	-120.834091
5273.437500	-121.733696
5296.875000	-123.127304
5320.312500	-123.201668
5343.750000	-122.682251
5367.187500	-119.172905
5390.625000	-112.087631
5414.062500	-111.897484
5437.500000	-118.022079
5460.937500	-119.607613
5484.375000	-113.997047
5507.812500	-115.376343
5531.250000	-121.101929
5554.687500	-120.044510
5578.125000	-121.575851
5601.562500	-122.968552
5625.000000	-123.620422
5648.437500	-123.642410
5671.875000	-123.455467
5695.312500	-123.798996
5718.750000	-123.950836
5742.187500	-123.730408
5765.625000	-123.791641
5789.062500	-123.834343
5812.500000	-123.887535
5835.937500	-124.860428
5859.375000	-125.523232
5882.812500	-124.708504
5906.250000	-123.588623
5929.687500	-124.015327
5953.125000	-125.785500
5976.562500	-125.659721
6000.000000	-124.636925
6023.437500	-124.389023
6046.875000	-122.855545
6070.312500	-115.139038
6093.750000	-109.705444
6117.187500	-113.872047
6140.625000	-118.108276
6164.062500	-112.808472
6187.500000	-113.829391
6210.937500	-113.890541
6234.375000	-112.225517
6257.812500	-118.440079
6281.250000	-122.126686
6304.687500	-123.208527
6328.125000	-125.515594
6351.562500	-125.647881
6375.000000	-125.742027
6398.437500	-126.241241
6421.875000	-126.493698
6445.312500	-125.950455
6468.750000	-125.371391
6492.187500	-124.467216
6515.625000	-124.308571
6539.062500	-125.216942
6562.500000	-125.836029
6585.937500	-125.970703
6609.375000	-125.556351
6632.812500	-125.920326
6656.250000	-126.577370
6679.687500	-126.530121
6703.125000	-126.442078
6726.562500	-126.270569
6750.000000	-126.702614
6773.437500	-126.579994
6796.875000	-126.626999
6820.312500	-126.877609
6843.750000	-126.761757
6867.187500	-126.072380
6890.625000	-123.619682
6914.062500	-122.602905
6937.500000	-123.180298
6960.937500	-124.911743
6984.375000	-124.274239
7007.812500	-122.964478
7031.250000	-122.822678
7054.687500	-124.199425
7078.125000	-120.259796
7101.562500	-121.999771
7125.000000	-125.887390
7148.437500	-126.114655
7171.875000	-126.519188
7195.312500	-126.457253
7218.750000	-126.359779
7242.187500	-126.314728
7265.625000	-125.634109
7289.062500	-124.228477
7312.500000	-123.146118
7335.937500	-124.265602
7359.375000	-126.713615
7382.812500	-126.853073
7406.250000	-126.288292
7429.687500	-126.338356
7453.125000	-127.000763
7476.562500	-126.984467
7500.000000	-126.793694
7523.437500	-126.529633
7546.875000	-127.153275
7570.312500	-126.868889
7593.750000	-126.489105
7617.187500	-125.425278
7640.625000	-126.172188
7664.062500	-127.202003
7687.500000	-127.301758
7710.937500	-126.890427
7734.375000	-126.586441
7757.812500	-127.114868
7781.250000	-127.268661
7804.687500	-127.109673
7828.125000	-127.116798
7851.562500	-126.357513
7875.000000	-124.117676
7898.437500	-124.094543
7921.875000	-125.880089
7945.312500	-126.231514
7968.750000	-123.000732
7992.187500	-118.299141
8015.625000	-118.445473
8039.062500	-124.892181
8062.500000	-126.547523
8085.937500	-126.921082
8109.375000	-126.812675
8132.812500	-127.014496
8156.250000	-127.274269
8179.687500	-127.631042
8203.125000	-127.685661
8226.562500	-127.739571
8250.000000	-127.673477
8273.437500	-127.420303
8296.875000	-127.517876
8320.312500	-127.331146
8343.750000	-127.198013
8367.187500	-127.569061
8390.625000	-127.602097
8414.062500	-127.291626
8437.500000	-127.038712
8460.937500	-127.064476
8484.375000	-126.516037
8507.812500	-127.056107
8531.250000	-127.753708
8554.687500	-127.750740
8578.125000	-127.771820
8601.562500	-127.860954
8625.000000	-127.845787
8648.437500	-127.897675
8671.875000	-127.837502
8695.312500	-127.627747
8718.750000	-127.364967
8742.187500	-127.391022
8765.625000	-127.595268
8789.062500	-127.580841
8812.500000	-127.449738
8835.937500	-127.487198
8859.375000	-127.304802
8882.812500	-127.279694
8906.250000	-127.255753
8929.687500	-126.860977
8953.125000	-127.080429
8976.562500	-126.234810
9000.000000	-124.648369
9023.437500	-125.605553
9046.875000	-127.475166
9070.312500	-127.780159
9093.750000	-127.241287
9117.187500	-126.895592
9140.625000	-127.668427
9164.062500	-127.982483
9187.500000	-127.995575
9210.937500	-128.160034
9234.375000	-128.001495
9257.812500	-127.721672
9281.250000	-127.483070
9304.687500	-127.461868
9328.125000	-127.866241
9351.562500	-128.249298
9375.000000	-128.232895
9398.437500	-128.056351
9421.875000	-128.023682
9445.312500	-128.048035
9468.750000	-127.774124
9492.187500	-127.638680
9515.625000	-128.017471
9539.062500	-128.034256
9562.500000	-127.767494
9585.937500	-127.904381
9609.375000	-127.985275
9632.812500	-127.859787
9656.250000	-127.714790
9679.687500	-125.531189
9703.125000	-123.876549
9726.562500	-124.322784
9750.000000	-125.734749
9773.437500	-127.829742
9796.875000	-128.237915
9820.312500	-128.266754
9843.750000	-127.926239
9867.187500	-128.042725
9890.625000	-128.408798
9914.062500	-128.401337
9937.500000	-128.355682
9960.937500	-128.320526
9984.375000	-128.243820
10007.812500	-126.789459
10031.250000	-126.692078
10054.687500	-128.115479
10078.125000	-128.298233
10101.562500	-128.356339
10125.000000	-128.432480
10148.437500	-128.399078
10171.875000	-128.242294
10195.312500	-128.494278
10218.750000	-128.462906
10242.187500	-128.406723
10265.625000	-128.317444
10289.062500	-128.283585
10312.500000	-128.084610
10335.937500	-128.075958
10359.375000	-128.363922
10382.812500	-128.369537
10406.250000	-128.434982
10429.687500	-128.628326
10453.125000	-128.694473
10476.562500	-128.691605
10500.000000	-128.477783
10523.437500	-128.583084
10546.875000	-128.478836
10570.312500	-128.469788
10593.750000	-128.466614
10617.187500	-128.607193
10640.625000	-128.641113
10664.062500	-128.691422
10687.500000	-128.708694
10710.937500	-128.567993
10734.375000	-128.439987
10757.812500	-128.425125
10781.250000	-128.368881
10804.687500	-128.466980
10828.125000	-128.574661
10851.562500	-128.605057
10875.000000	-128.660995
10898.437500	-128.587357
10921.875000	-128.404572
10945.312500	-128.238617
10968.750000	-127.978607
10992.187500	-128.105881
11015.625000	-128.120621
11039.062500	-128.448196
11062.500000	-128.281479
11085.937500	-128.435455
11109.375000	-128.585556
11132.812500	-128.507584
11156.250000	-128.361191
11179.687500	-128.263123
11203.125000	-128.566452
11226.562500	-128.685226
11250.000000	-128.732224
11273.437500	-128.634903
11296.875000	-128.626328
11320.312500	-128.701965
11343.750000	-128.692947
11367.187500	-128.732208
11390.625000	-128.635941
11414.062500	-128.470551
11437.500000	-128.444000
11460.937500	-128.675217
11484.375000	-128.796936
11507.812500	-128.826401
11531.250000	-128.780212
11554.687500	-128.723251
11578.125000	-128.708405
11601.562500	-128.682358
11625.000000	-128.772202
11648.437500	-128.832703
11671.875000	-128.791092
11695.312500	-128.763947
11718.750000	-128.616989
11742.187500	-128.711746
11765.625000	-128.725143
11789.062500	-128.723663
11812.500000	-128.640137
11835.937500	-128.659042
11859.375000	-128.666504
11882.812500	-128.598236
11906.250000	-128.347153
11929.687500	-128.632675
11953.125000	-128.911148
11976.562500	-128.705963
12000.000000	-128.603058
12023.437500	-128.823563
12046.875000	-128.798889
12070.312500	-128.804047
12093.750000	-128.917267
12117.187500	-128.917206
12140.625000	-128.979233
12164.062500	-128.930573
12187.500000	-128.757507
12210.937500	-128.707550
12234.375000	-128.927048
12257.812500	-128.809525
12281.250000	-128.698044
12304.687500	-128.696350
12328.125000	-128.772171
12351.562500	-128.789474
12375.000000	-128.627594
12398.437500	-128.718903
12421.875000	-128.697876
12445.312500	-128.743988
12468.750000	-128.722580
12492.187500	-128.883835
12515.625000	-128.891937
12539.062500	-128.817017
12562.500000	-128.847397
12585.937500	-128.885818
12609.375000	-128.732727
12632.812500	-128.826828
12656.250000	-128.913254
12679.687500	-128.950165
12703.125000	-128.915512
12726.562500	-128.841949
12750.000000	-128.958221
12773.437500	-128.767883
12796.875000	-128.803268
12820.312500	-128.728149
12843.750000	-128.733215
12867.187500	-128.804993
12890.625000	-128.972473
12914.062500	-128.909592
12937.500000	-128.905411
12960.937500	-128.997009
12984.375000	-128.979980
13007.812500	-128.948685
13031.250000	-128.901505
13054.687500	-128.997574
13078.125000	-129.055801
13101.562500	-128.998520
13125.000000	-128.857559
13148.437500	-128.850494
13171.875000	-128.688141
13195.312500	-128.831665
13218.750000	-128.829086
13242.187500	-128.780579
13265.625000	-128.885864
13289.062500	-129.072830
13312.500000	-129.082077
13335.937500	-128.940262
13359.375000	-128.846588
13382.812500	-128.697754
13406.250000	-128.771194
13429.687500	-129.035934
13453.125000	-129.048492
13476.562500	-128.996582
13500.000000	-128.859192
13523.437500	-128.878860
13546.875000	-128.861130
13570.312500	-128.799896
13593.750000	-128.830368
13617.187500	-128.777161
13640.625000	-128.767990
13664.062500	-128.926636
13687.500000	-128.887726
13710.937500	-128.939224
13734.375000	-128.993958
13757.812500	-129.050064
13781.250000	-129.079529
13804.687500	-129.002090
13828.125000	-129.036575
13851.562500	-128.978027
13875.000000	-128.941452
13898.437500	-128.942535
13921.875000	-128.909027
13945.312500	-128.907593
13968.750000	-128.766479
13992.187500	-128.879898
14015.625000	-128.843842
14039.062500	-128.855331
14062.500000	-128.899521
14085.937500	-128.939362
14109.375000	-128.905701
14132.812500	-129.023972
14156.250000	-129.016510
14179.687500	-129.033630
14203.125000	-129.033661
14226.562500	-129.043243
14250.000000	-128.934158
14273.437500	-129.046997
14296.875000	-129.086472
14320.312500	-128.993805
14343.750000	-129.058884
14367.187500	-128.863464
14390.625000	-128.952438
14414.062500	-128.954742
14437.500000	-128.888031
14460.937500	-128.962341
14484.375000	-129.033829
14507.812500	-129.016541
14531.250000	-129.053558
14554.687500	-129.092636
14578.125000	-129.072128
14601.562500	-129.173340
14625.000000	-129.137497
14648.437500	-129.107529
14671.875000	-129.170334
14695.312500	-129.061050
14718.750000	-129.063538
14742.187500	-129.070053
14765.625000	-128.948318
14789.062500	-128.943405
14812.500000	-129.008774
14835.937500	-129.013412
14859.375000	-129.038162
14882.812500	-128.957458
14906.250000	-128.993668
14929.687500	-129.071259
14953.125000	-129.070648
14976.562500	-129.123123
15000.000000	-129.062622
15023.437500	-129.152786
15046.875000	-129.050476
15070.312500	-129.038284
15093.750000	-129.116425
15117.187500	-129.094910
15140.625000	-129.088058
15164.062500	-129.078171
15187.500000	-129.019424
15210.937500	-129.014191
15234.375000	-129.169083
15257.812500	-129.109604
15281.250000	-129.149902
15304.687500	-129.078445
15328.125000	-129.143356
15351.562500	-129.153961
15375.000000	-129.108459
15398.437500	-129.131271
15421.875000	-129.150665
15445.312500	-129.112152
15468.750000	-129.083298
15492.187500	-129.127930
15515.625000	-129.221817
15539.062500	-129.194519
15562.500000	-128.918121
15585.937500	-128.999771
15609.375000	-129.081345
15632.812500	-129.060272
15656.250000	-129.107010
15679.687500	-129.156174
15703.125000	-129.158401
15726.562500	-129.033722
15750.000000	-129.089172
15773.437500	-129.106171
15796.875000	-129.087143
15820.312500	-129.161942
15843.750000	-129.223206
15867.187500	-129.174667
15890.625000	-129.090393
15914.062500	-129.054230
15937.500000	-129.126633
15960.937500	-128.976410
15984.375000	-129.023071
16007.812500	-129.056824
16031.250000	-128.928925
16054.687500	-129.064453
16078.125000	-129.072845
16101.562500	-129.050262
16125.000000	-129.183533
16148.437500	-129.203400
16171.875000	-129.179749
16195.312500	-129.149811
16218.750000	-129.095078
16242.187500	-129.191650
16265.625000	-129.166229
16289.062500	-129.066849
16312.500000	-129.055481
16335.937500	-129.096069
16359.375000	-129.019211
16382.812500	-128.964783
16406.250000	-129.122986
16429.687500	-129.030258
16453.125000	-129.051849
16476.562500	-129.154388
16500.000000	-128.975571
16523.437500	-129.143082
16546.875000	-129.219391
16570.312500	-129.239471
16593.750000	-129.154221
16617.187500	-129.098831
16640.625000	-129.114334
16664.062500	-129.129410
16687.500000	-129.062561
16710.937500	-129.010971
16734.375000	-129.230225
16757.812500	-129.255066
16781.250000	-129.130188
16804.687500	-129.067932
16828.125000	-128.952850
16851.562500	-129.053024
16875.000000	-129.124252
16898.437500	-129.067673
16921.875000	-129.077866
16945.312500	-129.129059
16968.750000	-129.258789
16992.187500	-129.261612
17015.625000	-129.215775
17039.062500	-129.145935
17062.500000	-129.148560
17085.937500	-129.146912
17109.375000	-129.133911
17132.812500	-129.114990
17156.250000	-129.019333
17179.687500	-129.138275
17203.125000	-129.226990
17226.562500	-129.124908
17250.000000	-129.112274
17273.437500	-129.237030
17296.875000	-129.215027
17320.312500	-129.122330
17343.750000	-129.126907
17367.187500	-129.175598
17390.625000	-129.139832
17414.062500	-129.127991
17437.500000	-129.138336
17460.937500	-129.112335
17484.375000	-129.117935
17507.812500	-129.167892
17531.250000	-129.157822
17554.687500	-129.112427
17578.125000	-129.128128
17601.562500	-129.093735
17625.000000	-129.070984
17648.437500	-129.109711
17671.875000	-129.163086
17695.312500	-129.180084
17718.750000	-129.144043
17742.187500	-129.232956
17765.625000	-129.262192
17789.062500	-129.158798
17812.500000	-129.193253
17835.937500	-129.139252
17859.375000	-129.069901
17882.812500	-128.984756
17906.250000	-129.065308
17929.687500	-129.085464
17953.125000	-128.986938
17976.562500	-128.988968
18000.000000	-128.844025
18023.437500	-129.022949
18046.875000	-129.135941
18070.312500	-129.195053
18093.750000	-129.119583
18117.187500	-129.172836
18140.625000	-129.301712
18164.062500	-129.109070
18187.500000	-129.075882
18210.937500	-129.195541
18234.375000	-129.199524
18257.812500	-129.113083
18281.250000	-129.066055
18304.687500	-129.083984
18328.125000	-129.071243
18351.562500	-129.163345
18375.000000	-129.278473
18398.437500	-129.163055
18421.875000	-129.202377
18445.312500	-129.082199
18468.750000	-129.023743
18492.187500	-129.129227
18515.625000	-129.173676
18539.062500	-129.196564
