주파수 (Hz)	레벨 (dB)
23.437500	-87.055321
46.875000	-71.948143
70.312500	-59.304749
93.750000	-54.135048
117.187500	-53.373589
140.625000	-54.130165
164.062500	-55.543045
187.500000	-52.627239
210.937500	-48.196304
234.375000	-45.950672
257.812500	-48.160160
281.250000	-49.324013
304.687500	-51.365234
328.125000	-49.781200
351.562500	-46.821842
375.000000	-47.528111
398.437500	-45.122063
421.875000	-45.091518
445.312500	-49.101463
468.750000	-47.770573
492.187500	-52.097603
515.625000	-50.708099
539.062500	-50.232616
562.500000	-50.999325
585.937500	-49.055107
609.375000	-48.440525
632.812500	-48.455967
656.250000	-55.926071
679.687500	-56.443916
703.125000	-52.855816
726.562500	-56.408607
750.000000	-59.877941
773.437500	-56.672203
796.875000	-56.091709
820.312500	-56.899502
843.750000	-57.326897
867.187500	-62.606850
890.625000	-62.703312
914.062500	-61.078171
937.500000	-56.614124
960.937500	-58.676010
984.375000	-55.677521
1007.812500	-58.950722
1031.250000	-58.233486
1054.687500	-54.567387
1078.125000	-60.473156
1101.562500	-61.444031
1125.000000	-62.484863
1148.437500	-66.162132
1171.875000	-60.292976
1195.312500	-61.851704
1218.750000	-62.015518
1242.187500	-59.355186
1265.625000	-62.235226
1289.062500	-69.399818
1312.500000	-66.083961
1335.937500	-66.622581
1359.375000	-67.642357
1382.812500	-61.770313
1406.250000	-59.768810
1429.687500	-63.938320
1453.125000	-67.541725
1476.562500	-67.042000
1500.000000	-69.076469
1523.437500	-71.832024
1546.875000	-66.757614
1570.312500	-59.174488
1593.750000	-59.725868
1617.187500	-67.217735
1640.625000	-66.315819
1664.062500	-62.897640
1687.500000	-62.946213
1710.937500	-72.271500
1734.375000	-71.021591
1757.812500	-64.491257
1781.250000	-65.798538
1804.687500	-73.021408
1828.125000	-75.548668
1851.562500	-68.929619
1875.000000	-63.261017
1898.437500	-66.156593
1921.875000	-74.250389
1945.312500	-74.251831
1968.750000	-70.882729
1992.187500	-70.815323
2015.625000	-76.108139
2039.062500	-80.656952
2062.500000	-77.323990
2085.937500	-72.775124
2109.375000	-67.822365
2132.812500	-69.324730
2156.250000	-78.893204
2179.687500	-80.201553
2203.125000	-76.786697
2226.562500	-74.198425
2250.000000	-74.390076
2273.437500	-80.221581
2296.875000	-80.952263
2320.312500	-78.372734
2343.750000	-74.442551
2367.187500	-70.145432
2390.625000	-71.553032
2414.062500	-78.849281
2437.500000	-80.620628
2460.937500	-82.056633
2484.375000	-79.879593
2507.812500	-75.918419
2531.250000	-74.582863
2554.687500	-81.506752
2578.125000	-86.329430
2601.562500	-83.626038
2625.000000	-82.412720
2648.437500	-78.632103
2671.875000	-77.553696
2695.312500	-81.802147
2718.750000	-85.935677
2742.187500	-81.954834
2765.625000	-80.102661
2789.062500	-78.618721
2812.500000	-74.544571
2835.937500	-72.133629
2859.375000	-76.262291
2882.812500	-82.837563
2906.250000	-84.583778
2929.687500	-81.880501
2953.125000	-74.359917
2976.562500	-74.508369
3000.000000	-77.612274
3023.437500	-80.695488
3046.875000	-85.951607
3070.312500	-88.038467
3093.750000	-82.216904
3117.187500	-84.227982
3140.625000	-82.984169
3164.062500	-79.211121
3187.500000	-74.643532
3210.937500	-72.983536
3234.375000	-79.554283
3257.812500	-90.934242
3281.250000	-90.449623
3304.687500	-83.447998
3328.125000	-75.420128
3351.562500	-77.509254
3375.000000	-84.707512
3398.437500	-81.795761
3421.875000	-83.375740
3445.312500	-90.439499
3468.750000	-92.863274
3492.187500	-89.656464
3515.625000	-90.416389
3539.062500	-86.644951
3562.500000	-82.076180
3585.937500	-82.249756
3609.375000	-80.854813
3632.812500	-82.075455
3656.250000	-89.167252
3679.687500	-91.460236
3703.125000	-90.427818
3726.562500	-94.425583
3750.000000	-89.195244
3773.437500	-87.424667
3796.875000	-87.526039
3820.312500	-80.684036
3843.750000	-81.242004
3867.187500	-86.907867
3890.625000	-96.265678
3914.062500	-99.076927
3937.500000	-99.145020
3960.937500	-95.324242
3984.375000	-89.267128
4007.812500	-89.487869
4031.250000	-94.915535
4054.687500	-94.929947
4078.125000	-93.213470
4101.562500	-95.298477
4125.000000	-99.811050
4148.437500	-97.466904
4171.875000	-92.094727
4195.312500	-90.978203
4218.750000	-93.910149
4242.187500	-92.581787
4265.625000	-92.589134
4289.062500	-93.430717
4312.500000	-87.998611
4335.937500	-83.511345
4359.375000	-86.454147
4382.812500	-95.908798
4406.250000	-98.891426
4429.687500	-100.089806
4453.125000	-99.551147
4476.562500	-93.692398
4500.000000	-93.500717
4523.437500	-96.318863
4546.875000	-96.380661
4570.312500	-96.658173
4593.750000	-94.047974
4617.187500	-96.912735
4640.625000	-100.959274
4664.062500	-101.089981
4687.500000	-98.969833
4710.937500	-98.821541
4734.375000	-92.212860
4757.812500	-92.709709
4781.250000	-97.933006
4804.687500	-97.370918
4828.125000	-94.836594
4851.562500	-91.163597
4875.000000	-92.421021
4898.437500	-96.836441
4921.875000	-92.340164
4945.312500	-93.548882
4968.750000	-102.243332
4992.187500	-104.786049
5015.625000	-104.511978
5039.062500	-99.315819
5062.500000	-93.778473
5085.937500	-97.253922
5109.375000	-103.848129
5132.812500	-97.275635
5156.250000	-91.347450
5179.687500	-90.425217
5203.125000	-96.595757
5226.562500	-96.097755
5250.000000	-97.226929
5273.437500	-101.955658
5296.875000	-105.833725
5320.312500	-103.885818
5343.750000	-101.109383
5367.187500	-97.872169
5390.625000	-100.739296
5414.062500	-103.492271
5437.500000	-102.800285
5460.937500	-103.374763
5484.375000	-102.644707
5507.812500	-103.139893
5531.250000	-101.679626
5554.687500	-98.535233
5578.125000	-103.823753
5601.562500	-108.208351
5625.000000	-108.150429
5648.437500	-109.261086
5671.875000	-105.705986
5695.312500	-96.995193
5718.750000	-93.240547
5742.187500	-94.869736
5765.625000	-100.169914
5789.062500	-106.597298
5812.500000	-102.462036
5835.937500	-99.582664
5859.375000	-103.504333
5882.812500	-107.670502
5906.250000	-102.143036
5929.687500	-102.156784
5953.125000	-106.274849
5976.562500	-107.199783
6000.000000	-107.199600
6023.437500	-110.763603
6046.875000	-113.216858
6070.312500	-106.661949
6093.750000	-101.836174
6117.187500	-105.350777
6140.625000	-109.882233
6164.062500	-102.068321
6187.500000	-99.685860
6210.937500	-104.546707
6234.375000	-109.650589
6257.812500	-111.834564
6281.250000	-107.804024
6304.687500	-105.601875
6328.125000	-110.264336
6351.562500	-110.772339
6375.000000	-109.154488
6398.437500	-110.297119
6421.875000	-112.967270
6445.312500	-112.170532
6468.750000	-108.825958
6492.187500	-108.665352
6515.625000	-111.467010
6539.062500	-112.621017
6562.500000	-109.389145
6585.937500	-100.670731
6609.375000	-99.185730
6632.812500	-105.246193
6656.250000	-111.688248
6679.687500	-107.494835
6703.125000	-108.977837
6726.562500	-109.992798
6750.000000	-110.443977
6773.437500	-111.497490
6796.875000	-113.726631
6820.312500	-115.404663
6843.750000	-115.804802
6867.187500	-112.015602
6890.625000	-106.014511
6914.062500	-104.813744
6937.500000	-109.450592
6960.937500	-109.345894
6984.375000	-107.705055
7007.812500	-110.977905
7031.250000	-108.670303
7054.687500	-110.768661
7078.125000	-116.561554
7101.562500	-116.885208
7125.000000	-113.566284
7148.437500	-112.331215
7171.875000	-113.185585
7195.312500	-113.787109
7218.750000	-114.783432
7242.187500	-111.382729
7265.625000	-106.577835
7289.062500	-108.885132
7312.500000	-117.050140
7335.937500	-118.520256
7359.375000	-117.673637
7382.812500	-112.355652
7406.250000	-111.404907
7429.687500	-112.670647
7453.125000	-112.450813
7476.562500	-109.678619
7500.000000	-108.318642
7523.437500	-108.046906
7546.875000	-112.459236
7570.312500	-113.556458
7593.750000	-107.732918
7617.187500	-106.347137
7640.625000	-113.753883
7664.062500	-119.427010
7687.500000	-119.404633
7710.937500	-118.012711
7734.375000	-114.611343
7757.812500	-112.420692
7781.250000	-113.797340
7804.687500	-115.733505
7828.125000	-116.088699
7851.562500	-114.214203
7875.000000	-117.069557
7898.437500	-118.504768
7921.875000	-117.952919
7945.312500	-114.808205
7968.750000	-108.533310
7992.187500	-106.994728
8015.625000	-108.056076
8039.062500	-113.026421
8062.500000	-113.170792
8085.937500	-115.134727
8109.375000	-117.130615
8132.812500	-118.590851
8156.250000	-117.902245
8179.687500	-117.083839
8203.125000	-115.694633
8226.562500	-117.744064
8250.000000	-118.005310
8273.437500	-117.580856
8296.875000	-116.488945
8320.312500	-115.867882
8343.750000	-117.813721
8367.187500	-119.279694
8390.625000	-118.592247
8414.062500	-116.242264
8437.500000	-114.793259
8460.937500	-115.760239
8484.375000	-118.208679
8507.812500	-115.789398
8531.250000	-115.561081
8554.687500	-111.197426
8578.125000	-114.253181
8601.562500	-119.885269
8625.000000	-121.474388
8648.437500	-122.131271
8671.875000	-122.396004
8695.312500	-121.781380
8718.750000	-120.104836
8742.187500	-119.044724
8765.625000	-120.281960
8789.062500	-121.572693
8812.500000	-120.849907
8835.937500	-121.152130
8859.375000	-121.101875
8882.812500	-120.159081
8906.250000	-120.403496
8929.687500	-121.567253
8953.125000	-121.634743
8976.562500	-119.986526
9000.000000	-118.191315
9023.437500	-117.918633
9046.875000	-118.536957
9070.312500	-118.996956
9093.750000	-115.608162
9117.187500	-114.121246
9140.625000	-117.741699
9164.062500	-120.973282
9187.500000	-122.242828
9210.937500	-122.376274
9234.375000	-121.989250
9257.812500	-121.774704
9281.250000	-121.992920
9304.687500	-122.552879
9328.125000	-123.159691
9351.562500	-123.059616
9375.000000	-122.605995
9398.437500	-121.909874
9421.875000	-118.454247
9445.312500	-118.493103
9468.750000	-121.727959
9492.187500	-122.100525
9515.625000	-122.027405
9539.062500	-122.776260
9562.500000	-121.936302
9585.937500	-121.993210
9609.375000	-121.146561
9632.812500	-120.643234
9656.250000	-120.503036
9679.687500	-121.305450
9703.125000	-121.230415
9726.562500	-122.451279
9750.000000	-123.431473
9773.437500	-123.932465
9796.875000	-124.496643
9820.312500	-124.391991
9843.750000	-123.119133
9867.187500	-122.305649
9890.625000	-121.621284
9914.062500	-121.989189
9937.500000	-122.839157
9960.937500	-123.849030
9984.375000	-123.801285
10007.812500	-121.754501
10031.250000	-121.380409
10054.687500	-122.328423
10078.125000	-122.376411
10101.562500	-123.077240
10125.000000	-123.517998
10148.437500	-123.076622
10171.875000	-123.635513
10195.312500	-123.689583
10218.750000	-123.266357
10242.187500	-122.104820
10265.625000	-119.274261
10289.062500	-117.222809
10312.500000	-118.020615
10335.937500	-122.746193
10359.375000	-123.349609
10382.812500	-122.434158
10406.250000	-122.213646
10429.687500	-122.618462
10453.125000	-122.672577
10476.562500	-124.075890
10500.000000	-124.001587
10523.437500	-123.427368
10546.875000	-124.454147
10570.312500	-124.307533
10593.750000	-124.180077
10617.187500	-124.972557
10640.625000	-125.437271
10664.062500	-125.190353
10687.500000	-125.158203
10710.937500	-125.132446
10734.375000	-124.822357
10757.812500	-124.305229
10781.250000	-124.252640
10804.687500	-125.182541
10828.125000	-125.572273
10851.562500	-125.669312
10875.000000	-125.797577
10898.437500	-124.750702
10921.875000	-123.260101
10945.312500	-124.187691
10968.750000	-124.800529
10992.187500	-124.061974
11015.625000	-123.576675
11039.062500	-124.131401
11062.500000	-123.688583
11085.937500	-123.463638
11109.375000	-123.239365
11132.812500	-124.549820
11156.250000	-125.317719
11179.687500	-124.726547
11203.125000	-124.916267
11226.562500	-125.240738
11250.000000	-125.554459
11273.437500	-125.745895
11296.875000	-125.387497
11320.312500	-125.160568
11343.750000	-125.308105
11367.187500	-125.060547
11390.625000	-124.774773
11414.062500	-124.251778
11437.500000	-124.669876
11460.937500	-125.526199
11484.375000	-126.168861
11507.812500	-126.354378
11531.250000	-126.244408
11554.687500	-126.013733
11578.125000	-125.983200
11601.562500	-125.657799
11625.000000	-124.407135
11648.437500	-124.847839
11671.875000	-125.541328
11695.312500	-125.059448
11718.750000	-125.008820
11742.187500	-125.832489
11765.625000	-126.693291
11789.062500	-126.643440
11812.500000	-125.921387
11835.937500	-126.058609
11859.375000	-126.081306
11882.812500	-126.180664
11906.250000	-125.738770
11929.687500	-126.235046
11953.125000	-126.565010
11976.562500	-126.314430
12000.000000	-126.170967
12023.437500	-126.248207
12046.875000	-125.977264
12070.312500	-126.231979
12093.750000	-126.830475
12117.187500	-126.998283
12140.625000	-126.841721
12164.062500	-126.512192
12187.500000	-125.372574
12210.937500	-124.106316
12234.375000	-124.445068
12257.812500	-126.225761
12281.250000	-126.833427
12304.687500	-126.625877
12328.125000	-126.376183
12351.562500	-126.004654
12375.000000	-125.362381
12398.437500	-125.702744
12421.875000	-126.071320
12445.312500	-126.188660
12468.750000	-126.328880
12492.187500	-126.307953
12515.625000	-126.292648
12539.062500	-126.477425
12562.500000	-126.541924
12585.937500	-126.274879
12609.375000	-125.892570
12632.812500	-126.447556
12656.250000	-126.786324
12679.687500	-126.529633
12703.125000	-126.347443
12726.562500	-126.547585
12750.000000	-126.608307
12773.437500	-126.525368
12796.875000	-126.357101
12820.312500	-126.236618
12843.750000	-126.282196
12867.187500	-126.482658
12890.625000	-126.782082
12914.062500	-126.633492
12937.500000	-125.406670
12960.937500	-125.207954
12984.375000	-126.206306
13007.812500	-126.256699
13031.250000	-127.091141
13054.687500	-127.328651
13078.125000	-127.562859
13101.562500	-127.591515
13125.000000	-127.427025
13148.437500	-127.148056
13171.875000	-126.720856
13195.312500	-126.435898
13218.750000	-126.630798
13242.187500	-126.762405
13265.625000	-126.619354
13289.062500	-126.872856
13312.500000	-127.283714
13335.937500	-127.416725
13359.375000	-127.347816
13382.812500	-126.823883
13406.250000	-126.984108
13429.687500	-127.461670
13453.125000	-127.253151
13476.562500	-126.991188
13500.000000	-127.284096
13523.437500	-127.043915
13546.875000	-127.129936
13570.312500	-127.171768
13593.750000	-127.074242
13617.187500	-127.317917
13640.625000	-127.473793
13664.062500	-126.833267
13687.500000	-126.549782
13710.937500	-127.256096
13734.375000	-127.569702
13757.812500	-127.728767
13781.250000	-127.718651
13804.687500	-127.631584
13828.125000	-127.467033
13851.562500	-127.276001
13875.000000	-127.523544
13898.437500	-127.467094
13921.875000	-127.268143
13945.312500	-127.289230
13968.750000	-127.336037
13992.187500	-127.718857
14015.625000	-127.778763
14039.062500	-127.272331
14062.500000	-126.732132
14085.937500	-126.764198
14109.375000	-126.471313
14132.812500	-126.089287
14156.250000	-125.371513
14179.687500	-126.465874
14203.125000	-127.322540
14226.562500	-127.267319
14250.000000	-127.196014
14273.437500	-127.542747
14296.875000	-127.914879
14320.312500	-127.841721
14343.750000	-127.922478
14367.187500	-127.709549
14390.625000	-127.715782
14414.062500	-127.639671
14437.500000	-127.623901
14460.937500	-127.958130
14484.375000	-127.963158
14507.812500	-128.077347
14531.250000	-128.246918
14554.687500	-128.173340
14578.125000	-128.149246
14601.562500	-128.105881
14625.000000	-128.001175
14648.437500	-127.978699
14671.875000	-127.897354
14695.312500	-127.957161
14718.750000	-128.011063
14742.187500	-128.023560
14765.625000	-128.149628
14789.062500	-127.918884
14812.500000	-127.925819
14835.937500	-128.168777
14859.375000	-128.252304
14882.812500	-128.340485
14906.250000	-128.168243
14929.687500	-128.018661
14953.125000	-127.711563
14976.562500	-127.783813
15000.000000	-127.751289
15023.437500	-127.632561
15046.875000	-127.683510
15070.312500	-127.975815
15093.750000	-128.160141
15117.187500	-128.250717
15140.625000	-128.151367
15164.062500	-127.922142
15187.500000	-127.894447
15210.937500	-127.857216
15234.375000	-128.035904
15257.812500	-128.137192
15281.250000	-128.109436
15304.687500	-128.077957
15328.125000	-128.106323
15351.562500	-128.000565
15375.000000	-127.990036
15398.437500	-128.018204
15421.875000	-127.928589
15445.312500	-127.774712
15468.750000	-127.907776
15492.187500	-128.128235
15515.625000	-128.395401
15539.062500	-128.463684
15562.500000	-128.375092
15585.937500	-128.064026
15609.375000	-128.063934
15632.812500	-128.259766
15656.250000	-128.253616
15679.687500	-128.272385
15703.125000	-128.135590
15726.562500	-127.972404
15750.000000	-127.963654
15773.437500	-128.151947
15796.875000	-128.245300
15820.312500	-128.141312
15843.750000	-128.021210
15867.187500	-127.815781
15890.625000	-127.713425
15914.062500	-127.829384
15937.500000	-127.819473
15960.937500	-127.841896
15984.375000	-128.079498
16007.812500	-128.252670
16031.250000	-128.204468
16054.687500	-128.339233
16078.125000	-128.341141
16101.562500	-128.126022
16125.000000	-128.280930
16148.437500	-128.275894
16171.875000	-128.208389
16195.312500	-128.203201
16218.750000	-128.254974
16242.187500	-128.242523
16265.625000	-128.318192
16289.062500	-128.395294
16312.500000	-128.379028
16335.937500	-128.350006
16359.375000	-128.278625
16382.812500	-128.163574
16406.250000	-128.277756
16429.687500	-128.374054
16453.125000	-128.497040
16476.562500	-128.593079
16500.000000	-128.565567
16523.437500	-128.621399
16546.875000	-128.600723
16570.312500	-128.672089
16593.750000	-128.598022
16617.187500	-128.469482
16640.625000	-128.426605
16664.062500	-128.466415
16687.500000	-128.248901
16710.937500	-128.236725
16734.375000	-128.478455
16757.812500	-128.474503
16781.250000	-128.327286
16804.687500	-128.300507
16828.125000	-128.389160
16851.562500	-128.411942
16875.000000	-128.399612
16898.437500	-128.479401
16921.875000	-128.615005
16945.312500	-128.682785
16968.750000	-128.673508
16992.187500	-128.738861
17015.625000	-128.658661
17039.062500	-128.585144
17062.500000	-128.592224
17085.937500	-128.686020
17109.375000	-128.654953
17132.812500	-128.662430
17156.250000	-128.626526
17179.687500	-128.616486
17203.125000	-128.651245
17226.562500	-128.792572
17250.000000	-128.848480
17273.437500	-128.736664
17296.875000	-128.668640
17320.312500	-128.644257
17343.750000	-128.647278
17367.187500	-128.761673
17390.625000	-128.760452
17414.062500	-128.683777
17437.500000	-128.670563
17460.937500	-128.606476
17484.375000	-128.654037
17507.812500	-128.722260
17531.250000	-128.793396
17554.687500	-128.713501
17578.125000	-128.691498
17601.562500	-128.783340
17625.000000	-128.705658
17648.437500	-128.738174
17671.875000	-128.734711
17695.312500	-128.682083
17718.750000	-128.706100
17742.187500	-128.681793
17765.625000	-128.566956
17789.062500	-128.604935
17812.500000	-128.670319
17835.937500	-128.728058
17859.375000	-128.739624
17882.812500	-128.779984
17906.250000	-128.805740
17929.687500	-128.872971
17953.125000	-128.777512
17976.562500	-128.618942
18000.000000	-128.511703
18023.437500	-128.689407
18046.875000	-128.790710
18070.312500	-128.788498
18093.750000	-128.721481
18117.187500	-128.808090
18140.625000	-128.914352
18164.062500	-128.862976
18187.500000	-128.812225
18210.937500	-128.879379
18234.375000	-128.878998
18257.812500	-128.824203
18281.250000	-128.818649
18304.687500	-128.836960
18328.125000	-128.819366
18351.562500	-128.807220
18375.000000	-128.681015
18398.437500	-128.780685
18421.875000	-128.826111
18445.312500	-128.832962
18468.750000	-128.741333
18492.187500	-128.708252
18515.625000	-128.860245
18539.062500	-128.861237
18562.500000	-128.769882
18585.937500	-128.868759
18609.375000	-128.957443
18632.812500	-128.786636
