주파수 (Hz)	레벨 (dB)
23.437500	-100.419548
46.875000	-92.578987
70.312500	-78.780128
93.750000	-68.234489
117.187500	-62.791546
140.625000	-59.213573
164.062500	-57.625885
187.500000	-62.828014
210.937500	-60.937103
234.375000	-57.092747
257.812500	-60.583233
281.250000	-62.681526
304.687500	-60.422398
328.125000	-59.989502
351.562500	-60.351620
375.000000	-58.386562
398.437500	-60.528702
421.875000	-60.137287
445.312500	-63.687290
468.750000	-60.094921
492.187500	-61.059734
515.625000	-64.945053
539.062500	-66.362885
562.500000	-64.513618
585.937500	-66.647217
609.375000	-62.028896
632.812500	-60.489296
656.250000	-58.894730
679.687500	-61.768227
703.125000	-71.343430
726.562500	-68.627472
750.000000	-66.722832
773.437500	-72.630135
796.875000	-73.070648
820.312500	-63.271950
843.750000	-62.744499
867.187500	-73.184486
890.625000	-80.091156
914.062500	-77.877541
937.500000	-73.519295
960.937500	-73.293556
984.375000	-66.720680
1007.812500	-69.449837
1031.250000	-79.553871
1054.687500	-79.745712
1078.125000	-83.110451
1101.562500	-77.272125
1125.000000	-77.541916
1148.437500	-85.407829
1171.875000	-81.996704
1195.312500	-83.112778
1218.750000	-76.382538
1242.187500	-68.289970
1265.625000	-70.091614
1289.062500	-76.988258
1312.500000	-69.214981
1335.937500	-70.557793
1359.375000	-83.436150
1382.812500	-83.427353
1406.250000	-80.692947
1429.687500	-83.855209
1453.125000	-87.198631
1476.562500	-75.771393
1500.000000	-75.177254
1523.437500	-85.026360
1546.875000	-85.916855
1570.312500	-80.415596
1593.750000	-82.996658
1617.187500	-88.572464
1640.625000	-80.207474
1664.062500	-72.880852
1687.500000	-74.862198
1710.937500	-84.653107
1734.375000	-86.521957
1757.812500	-87.744133
1781.250000	-93.275856
1804.687500	-97.747032
1828.125000	-97.696281
1851.562500	-88.280464
1875.000000	-79.925636
1898.437500	-82.327805
1921.875000	-94.914070
1945.312500	-95.700356
1968.750000	-85.961205
1992.187500	-80.524513
2015.625000	-84.711601
2039.062500	-99.526817
2062.500000	-100.109795
2085.937500	-92.750504
2109.375000	-89.834221
2132.812500	-93.967155
2156.250000	-102.669617
2179.687500	-99.744873
2203.125000	-94.495667
2226.562500	-92.629433
2250.000000	-91.186920
2273.437500	-98.820610
2296.875000	-103.519722
2320.312500	-100.420471
2343.750000	-95.923820
2367.187500	-94.366219
2390.625000	-97.520226
2414.062500	-104.256653
2437.500000	-104.361015
2460.937500	-103.131317
2484.375000	-92.628868
2507.812500	-84.640701
2531.250000	-85.594139
2554.687500	-97.157959
2578.125000	-105.141861
2601.562500	-105.208603
2625.000000	-105.604851
2648.437500	-100.559616
2671.875000	-95.863205
2695.312500	-100.390892
2718.750000	-108.400459
2742.187500	-105.939384
2765.625000	-102.097610
2789.062500	-97.128433
2812.500000	-95.105865
2835.937500	-96.213051
2859.375000	-102.158905
2882.812500	-109.620995
2906.250000	-110.568687
2929.687500	-108.107018
2953.125000	-100.442223
2976.562500	-95.017540
3000.000000	-90.022774
3023.437500	-92.711830
3046.875000	-103.312897
3070.312500	-108.228851
3093.750000	-106.159401
3117.187500	-108.173218
3140.625000	-106.456474
3164.062500	-100.115753
3187.500000	-99.165161
3210.937500	-98.068604
3234.375000	-105.288582
3257.812500	-113.833008
3281.250000	-111.014648
3304.687500	-109.078911
3328.125000	-103.904564
3351.562500	-95.995590
3375.000000	-95.676880
3398.437500	-101.649323
3421.875000	-110.273018
3445.312500	-116.188263
3468.750000	-116.829674
3492.187500	-114.254883
3515.625000	-108.776337
3539.062500	-106.880501
3562.500000	-111.809341
3585.937500	-114.776268
3609.375000	-113.226730
3632.812500	-113.731071
3656.250000	-117.529419
3679.687500	-117.900291
3703.125000	-116.452637
3726.562500	-115.911301
3750.000000	-109.054993
3773.437500	-99.702278
3796.875000	-100.450508
3820.312500	-102.398605
3843.750000	-104.490700
3867.187500	-110.190567
3890.625000	-117.919510
3914.062500	-119.832039
3937.500000	-118.732811
3960.937500	-118.598465
3984.375000	-115.091225
4007.812500	-109.237434
4031.250000	-106.443436
4054.687500	-101.921783
4078.125000	-105.097290
4101.562500	-115.994347
4125.000000	-119.808372
4148.437500	-119.317833
4171.875000	-116.994247
4195.312500	-113.719002
4218.750000	-108.491745
4242.187500	-100.759460
4265.625000	-101.353027
4289.062500	-111.587021
4312.500000	-115.630363
4335.937500	-113.239655
4359.375000	-114.430557
4382.812500	-119.009064
4406.250000	-121.492233
4429.687500	-120.611023
4453.125000	-119.747993
4476.562500	-113.980324
4500.000000	-111.592514
4523.437500	-114.284943
4546.875000	-106.978020
4570.312500	-100.903313
4593.750000	-104.421364
4617.187500	-114.097153
4640.625000	-119.206718
4664.062500	-121.421463
4687.500000	-122.703690
4710.937500	-120.503746
4734.375000	-114.227051
4757.812500	-103.805679
4781.250000	-103.450798
4804.687500	-112.174324
4828.125000	-120.092148
4851.562500	-121.906494
4875.000000	-122.032616
4898.437500	-120.543396
4921.875000	-118.392113
4945.312500	-119.419197
4968.750000	-121.932945
4992.187500	-121.827850
5015.625000	-122.186012
5039.062500	-120.666542
5062.500000	-111.433617
5085.937500	-107.306549
5109.375000	-108.274910
5132.812500	-108.212540
5156.250000	-108.715439
5179.687500	-112.444572
5203.125000	-118.291718
5226.562500	-121.896378
5250.000000	-123.739464
5273.437500	-124.446312
5296.875000	-124.726799
5320.312500	-123.997246
5343.750000	-123.071877
5367.187500	-119.347458
5390.625000	-111.711304
5414.062500	-112.476471
5437.500000	-120.997299
5460.937500	-121.569870
5484.375000	-118.096542
5507.812500	-119.499184
5531.250000	-122.669220
5554.687500	-121.853561
5578.125000	-122.447289
5601.562500	-123.371063
5625.000000	-123.661133
5648.437500	-124.009605
5671.875000	-124.349228
5695.312500	-123.862022
5718.750000	-124.142242
5742.187500	-124.933952
5765.625000	-124.214386
5789.062500	-123.708252
5812.500000	-121.557556
5835.937500	-124.025002
5859.375000	-125.246506
5882.812500	-123.479088
5906.250000	-123.591934
5929.687500	-125.360161
5953.125000	-126.347900
5976.562500	-125.199112
6000.000000	-124.545464
6023.437500	-125.203773
6046.875000	-122.991196
6070.312500	-116.364479
6093.750000	-113.582230
6117.187500	-118.349281
6140.625000	-120.871284
6164.062500	-116.362564
6187.500000	-116.058083
6210.937500	-116.287819
6234.375000	-115.474655
6257.812500	-120.541107
6281.250000	-121.259293
6304.687500	-122.732307
6328.125000	-125.320930
6351.562500	-125.343193
6375.000000	-123.930511
6398.437500	-124.838562
6421.875000	-125.818153
6445.312500	-125.915436
6468.750000	-125.301079
6492.187500	-124.341042
6515.625000	-124.146347
6539.062500	-125.217430
6562.500000	-125.753593
6585.937500	-125.705261
6609.375000	-125.863426
6632.812500	-126.308380
6656.250000	-126.520760
6679.687500	-126.306000
6703.125000	-126.322922
6726.562500	-126.737976
6750.000000	-127.080223
6773.437500	-126.555313
6796.875000	-126.289726
6820.312500	-126.007614
6843.750000	-126.160530
6867.187500	-126.113899
6890.625000	-125.261002
6914.062500	-124.535393
6937.500000	-124.387245
6960.937500	-125.456619
6984.375000	-124.759483
7007.812500	-122.267906
7031.250000	-121.374794
7054.687500	-124.875961
7078.125000	-123.052010
7101.562500	-124.190674
7125.000000	-126.182945
7148.437500	-126.311729
7171.875000	-126.745384
7195.312500	-126.291794
7218.750000	-126.198486
7242.187500	-126.839554
7265.625000	-126.901215
7289.062500	-125.945885
7312.500000	-124.542328
7335.937500	-124.704681
7359.375000	-126.986931
7382.812500	-127.184929
7406.250000	-126.497025
7429.687500	-126.896210
7453.125000	-127.559830
7476.562500	-127.352654
7500.000000	-127.122475
7523.437500	-127.233055
7546.875000	-127.440201
7570.312500	-127.240326
7593.750000	-127.288612
7617.187500	-126.641258
7640.625000	-127.015671
7664.062500	-127.452248
7687.500000	-127.605103
7710.937500	-127.251289
7734.375000	-127.347946
7757.812500	-127.428772
7781.250000	-126.988899
7804.687500	-127.101578
7828.125000	-127.244888
7851.562500	-126.903366
7875.000000	-125.931381
7898.437500	-125.575371
7921.875000	-126.181717
7945.312500	-126.440544
7968.750000	-123.672340
7992.187500	-120.098289
8015.625000	-120.472450
8039.062500	-125.910858
8062.500000	-127.115105
8085.937500	-127.385254
8109.375000	-127.225822
8132.812500	-126.882370
8156.250000	-126.927559
8179.687500	-127.532097
8203.125000	-127.468170
8226.562500	-127.332924
8250.000000	-127.233376
8273.437500	-126.949333
8296.875000	-127.103142
8320.312500	-127.338882
8343.750000	-127.073433
8367.187500	-127.058495
8390.625000	-126.883163
8414.062500	-126.087906
8437.500000	-125.111008
8460.937500	-126.050156
8484.375000	-126.153473
8507.812500	-127.144753
8531.250000	-127.376503
8554.687500	-127.462715
8578.125000	-127.282654
8601.562500	-127.128754
8625.000000	-127.434319
8648.437500	-127.436272
8671.875000	-127.076668
8695.312500	-126.935135
8718.750000	-127.146820
8742.187500	-127.310150
8765.625000	-127.424301
8789.062500	-127.608215
8812.500000	-127.508957
8835.937500	-127.292023
8859.375000	-126.781059
8882.812500	-126.456253
8906.250000	-126.738960
8929.687500	-126.655907
8953.125000	-126.957672
8976.562500	-126.291367
9000.000000	-125.010773
9023.437500	-126.344307
9046.875000	-127.748329
9070.312500	-127.599716
9093.750000	-127.131775
9117.187500	-126.993500
9140.625000	-127.684944
9164.062500	-127.852051
9187.500000	-127.784607
9210.937500	-127.851791
9234.375000	-127.788116
9257.812500	-127.531540
9281.250000	-127.212547
9304.687500	-127.099846
9328.125000	-127.552490
9351.562500	-127.787994
9375.000000	-127.603867
9398.437500	-127.595261
9421.875000	-127.559906
9445.312500	-127.465294
9468.750000	-127.585709
9492.187500	-127.492935
9515.625000	-127.909172
9539.062500	-128.130936
9562.500000	-127.784744
9585.937500	-127.781715
9609.375000	-127.888237
9632.812500	-127.501595
9656.250000	-127.635468
9679.687500	-127.391716
9703.125000	-126.786034
9726.562500	-127.240562
9750.000000	-127.253021
9773.437500	-127.881912
9796.875000	-128.250595
9820.312500	-128.317825
9843.750000	-127.770485
9867.187500	-128.019897
9890.625000	-128.228699
9914.062500	-127.999756
9937.500000	-127.915634
9960.937500	-127.746490
9984.375000	-127.894753
10007.812500	-127.990463
10031.250000	-127.657684
10054.687500	-127.900383
10078.125000	-128.397522
10101.562500	-128.281219
10125.000000	-128.007751
10148.437500	-127.801765
10171.875000	-127.797073
10195.312500	-127.915268
10218.750000	-128.020035
10242.187500	-128.202209
10265.625000	-128.038025
10289.062500	-128.097107
10312.500000	-127.854790
10335.937500	-127.496307
10359.375000	-128.022629
10382.812500	-128.125366
10406.250000	-128.160477
10429.687500	-128.057175
10453.125000	-127.837799
10476.562500	-128.279709
10500.000000	-128.433792
10523.437500	-128.448593
10546.875000	-128.259567
10570.312500	-128.192017
10593.750000	-128.486801
10617.187500	-128.508270
10640.625000	-128.454315
10664.062500	-128.395615
10687.500000	-128.571838
10710.937500	-128.565750
10734.375000	-128.436005
10757.812500	-128.399582
10781.250000	-128.413239
10804.687500	-128.302170
10828.125000	-128.399048
10851.562500	-128.604752
10875.000000	-128.495377
10898.437500	-128.193207
10921.875000	-127.774384
10945.312500	-128.235535
10968.750000	-128.022751
10992.187500	-128.152466
11015.625000	-128.479355
11039.062500	-128.629440
11062.500000	-128.488831
11085.937500	-128.577377
11109.375000	-128.723419
11132.812500	-128.594193
11156.250000	-128.563538
11179.687500	-128.410172
11203.125000	-128.407593
11226.562500	-128.525467
11250.000000	-128.673767
11273.437500	-128.708023
11296.875000	-128.642288
11320.312500	-128.541840
11343.750000	-128.551285
11367.187500	-128.432541
11390.625000	-128.493271
11414.062500	-128.411560
11437.500000	-128.332153
11460.937500	-128.497147
11484.375000	-128.583420
11507.812500	-128.492050
11531.250000	-128.553497
11554.687500	-128.524414
11578.125000	-128.452011
11601.562500	-128.725861
11625.000000	-128.611389
11648.437500	-128.637344
11671.875000	-128.684509
11695.312500	-128.491104
11718.750000	-128.166473
11742.187500	-128.410507
11765.625000	-128.687378
11789.062500	-128.585388
11812.500000	-128.311447
11835.937500	-128.501221
11859.375000	-128.607040
11882.812500	-128.575226
11906.250000	-128.384369
11929.687500	-128.604034
11953.125000	-128.527252
11976.562500	-128.622589
12000.000000	-128.719528
12023.437500	-128.844482
12046.875000	-128.781708
12070.312500	-128.612244
12093.750000	-128.607193
12117.187500	-128.684296
12140.625000	-128.736771
12164.062500	-128.641083
12187.500000	-128.548706
12210.937500	-128.536133
12234.375000	-128.619095
12257.812500	-128.445114
12281.250000	-128.446259
12304.687500	-128.634216
12328.125000	-128.553665
12351.562500	-128.669189
12375.000000	-128.652649
12398.437500	-128.657166
12421.875000	-128.705322
12445.312500	-128.628845
12468.750000	-128.745926
12492.187500	-128.663849
12515.625000	-128.661163
12539.062500	-128.653915
12562.500000	-128.668030
12585.937500	-128.387405
12609.375000	-128.577240
12632.812500	-128.748657
12656.250000	-128.703217
12679.687500	-128.732574
12703.125000	-128.729248
12726.562500	-128.694702
12750.000000	-128.790665
12773.437500	-128.663147
12796.875000	-128.695038
12820.312500	-128.728226
12843.750000	-128.671524
12867.187500	-128.638901
12890.625000	-128.717743
12914.062500	-128.789902
12937.500000	-128.686874
12960.937500	-128.677963
12984.375000	-128.848511
13007.812500	-128.839233
13031.250000	-128.777267
13054.687500	-128.631851
13078.125000	-128.836761
13101.562500	-128.941589
13125.000000	-128.870361
13148.437500	-128.750931
13171.875000	-128.673889
13195.312500	-128.709839
13218.750000	-128.701050
13242.187500	-128.676514
13265.625000	-128.684891
13289.062500	-128.795364
13312.500000	-128.855865
13335.937500	-128.906967
13359.375000	-128.842133
13382.812500	-128.646088
13406.250000	-128.766418
13429.687500	-128.962143
13453.125000	-128.846252
13476.562500	-128.781967
13500.000000	-128.811722
13523.437500	-128.956482
13546.875000	-128.983490
13570.312500	-128.745605
13593.750000	-128.759338
13617.187500	-128.738449
13640.625000	-128.791916
13664.062500	-128.763290
13687.500000	-128.899689
13710.937500	-128.867615
13734.375000	-128.905869
13757.812500	-128.911987
13781.250000	-128.820267
13804.687500	-128.767517
13828.125000	-128.873413
13851.562500	-128.765060
13875.000000	-128.827805
13898.437500	-128.794128
13921.875000	-128.811218
13945.312500	-128.926208
13968.750000	-128.863358
13992.187500	-128.913361
14015.625000	-128.943512
14039.062500	-128.880157
14062.500000	-128.959473
14085.937500	-128.945831
14109.375000	-128.742203
14132.812500	-128.788300
14156.250000	-128.885605
14179.687500	-128.859573
14203.125000	-128.779358
14226.562500	-128.787064
14250.000000	-128.739716
14273.437500	-128.880173
14296.875000	-128.955795
14320.312500	-128.848602
14343.750000	-128.784821
14367.187500	-128.767761
14390.625000	-128.866257
14414.062500	-128.908188
14437.500000	-128.820908
14460.937500	-128.937241
14484.375000	-128.894485
14507.812500	-129.022354
14531.250000	-129.070129
14554.687500	-128.993408
14578.125000	-129.072556
14601.562500	-129.047455
14625.000000	-128.993759
14648.437500	-128.949280
14671.875000	-129.035248
14695.312500	-129.011459
14718.750000	-128.940094
14742.187500	-128.954010
14765.625000	-128.999817
14789.062500	-128.986710
14812.500000	-129.024841
14835.937500	-129.092606
14859.375000	-129.123062
14882.812500	-129.073898
14906.250000	-128.917847
14929.687500	-128.857407
14953.125000	-129.065796
14976.562500	-129.130066
15000.000000	-129.032333
15023.437500	-129.017899
15046.875000	-128.998215
15070.312500	-128.981384
15093.750000	-129.050278
15117.187500	-128.965836
15140.625000	-129.085129
15164.062500	-128.974228
15187.500000	-128.867401
15210.937500	-128.937897
15234.375000	-129.031555
15257.812500	-129.089996
15281.250000	-129.142838
15304.687500	-129.182602
15328.125000	-129.083115
15351.562500	-129.122604
15375.000000	-129.085129
15398.437500	-128.925247
15421.875000	-129.021652
15445.312500	-128.952271
15468.750000	-128.834991
15492.187500	-128.934464
15515.625000	-128.964813
15539.062500	-129.011383
15562.500000	-129.072311
15585.937500	-129.006851
15609.375000	-129.071320
15632.812500	-129.117676
15656.250000	-129.025543
15679.687500	-129.006866
15703.125000	-129.092117
15726.562500	-128.992279
15750.000000	-128.996475
15773.437500	-129.045258
15796.875000	-129.093063
15820.312500	-128.994583
15843.750000	-129.043106
15867.187500	-129.068909
15890.625000	-129.065552
15914.062500	-128.866364
15937.500000	-128.928543
15960.937500	-129.044922
15984.375000	-129.113434
16007.812500	-129.039093
16031.250000	-128.895767
16054.687500	-129.008606
16078.125000	-129.071106
16101.562500	-129.015427
16125.000000	-129.101822
16148.437500	-129.087219
16171.875000	-129.076035
16195.312500	-129.116287
16218.750000	-128.995865
16242.187500	-129.014954
16265.625000	-129.071503
16289.062500	-129.065613
16312.500000	-129.007233
16335.937500	-129.171448
16359.375000	-129.079208
16382.812500	-128.992126
16406.250000	-129.053131
16429.687500	-129.143005
16453.125000	-129.227890
16476.562500	-129.188416
16500.000000	-129.058289
16523.437500	-129.019928
16546.875000	-129.094147
16570.312500	-129.094070
16593.750000	-129.099319
16617.187500	-129.123627
16640.625000	-129.204422
16664.062500	-129.210068
16687.500000	-129.190063
16710.937500	-129.170258
16734.375000	-129.097092
16757.812500	-129.115753
16781.250000	-129.167282
16804.687500	-129.155350
16828.125000	-129.124756
16851.562500	-129.136932
16875.000000	-129.128296
16898.437500	-129.065353
16921.875000	-129.055466
16945.312500	-129.123947
16968.750000	-129.078888
16992.187500	-129.207489
17015.625000	-129.209976
17039.062500	-129.125854
17062.500000	-129.097687
17085.937500	-129.156113
17109.375000	-129.209747
17132.812500	-129.202057
17156.250000	-129.193787
17179.687500	-129.103073
17203.125000	-128.993210
17226.562500	-129.126694
17250.000000	-129.191254
17273.437500	-129.232788
17296.875000	-129.168930
17320.312500	-129.115784
17343.750000	-129.104813
17367.187500	-129.191452
17390.625000	-129.168137
17414.062500	-129.154984
17437.500000	-129.220978
17460.937500	-129.107239
17484.375000	-129.022079
17507.812500	-129.139008
17531.250000	-129.261871
17554.687500	-129.287598
17578.125000	-129.269485
17601.562500	-129.174911
17625.000000	-129.069061
17648.437500	-129.216354
17671.875000	-129.146179
17695.312500	-129.173645
17718.750000	-129.279633
17742.187500	-129.203995
17765.625000	-129.140060
17789.062500	-129.086807
17812.500000	-129.193146
17835.937500	-129.189468
17859.375000	-129.132202
17882.812500	-129.227173
17906.250000	-129.158707
17929.687500	-129.047272
17953.125000	-129.125748
17976.562500	-129.170609
18000.000000	-129.218857
18023.437500	-129.221405
18046.875000	-129.196899
18070.312500	-129.195267
18093.750000	-129.250900
18117.187500	-129.247620
18140.625000	-129.172607
18164.062500	-129.191650
18187.500000	-129.204742
18210.937500	-129.172333
18234.375000	-129.163910
18257.812500	-129.185684
18281.250000	-129.114929
18304.687500	-129.191467
18328.125000	-129.280899
18351.562500	-129.148438
18375.000000	-129.170502
18398.437500	-129.186279
18421.875000	-129.189163
18445.312500	-129.181122
18468.750000	-129.111969
18492.187500	-129.196335
18515.625000	-129.208969
18539.062500	-129.289185
