주파수 (Hz)	레벨 (dB)
23.437500	-103.428398
46.875000	-90.210434
70.312500	-78.274658
93.750000	-71.339470
117.187500	-67.355858
140.625000	-66.940819
164.062500	-66.085983
187.500000	-66.450783
210.937500	-63.394413
234.375000	-60.311131
257.812500	-64.890083
281.250000	-66.376205
304.687500	-67.325989
328.125000	-66.688812
351.562500	-64.250542
375.000000	-62.698048
398.437500	-65.429161
421.875000	-67.722839
445.312500	-66.888634
468.750000	-64.038048
492.187500	-67.263817
515.625000	-72.232002
539.062500	-67.836807
562.500000	-65.025749
585.937500	-69.725380
609.375000	-69.441689
632.812500	-68.697815
656.250000	-67.009209
679.687500	-68.487038
703.125000	-69.073593
726.562500	-72.722015
750.000000	-73.453354
773.437500	-76.154770
796.875000	-77.009941
820.312500	-71.837425
843.750000	-71.452881
867.187500	-72.806732
890.625000	-70.864609
914.062500	-78.330055
937.500000	-78.375870
960.937500	-81.498161
984.375000	-79.655891
1007.812500	-83.551147
1031.250000	-88.926064
1054.687500	-87.869484
1078.125000	-88.105881
1101.562500	-80.348686
1125.000000	-80.248840
1148.437500	-89.538048
1171.875000	-86.202003
1195.312500	-88.652161
1218.750000	-88.091583
1242.187500	-83.964111
1265.625000	-88.143677
1289.062500	-93.562096
1312.500000	-90.358688
1335.937500	-91.429855
1359.375000	-93.165527
1382.812500	-84.874443
1406.250000	-82.570190
1429.687500	-87.829582
1453.125000	-95.893616
1476.562500	-92.208183
1500.000000	-91.750656
1523.437500	-98.919373
1546.875000	-93.346870
1570.312500	-87.859444
1593.750000	-91.164886
1617.187500	-98.456154
1640.625000	-91.135872
1664.062500	-84.251663
1687.500000	-83.631836
1710.937500	-93.994057
1734.375000	-93.220772
1757.812500	-90.086975
1781.250000	-90.972725
1804.687500	-100.123856
1828.125000	-106.125992
1851.562500	-91.460136
1875.000000	-83.186226
1898.437500	-85.955025
1921.875000	-101.380600
1945.312500	-95.461807
1968.750000	-90.336815
1992.187500	-88.459534
2015.625000	-93.242561
2039.062500	-107.093330
2062.500000	-109.343170
2085.937500	-104.194061
2109.375000	-100.942917
2132.812500	-104.909279
2156.250000	-110.535210
2179.687500	-105.466072
2203.125000	-101.010674
2226.562500	-98.151596
2250.000000	-95.784912
2273.437500	-102.372505
2296.875000	-110.450653
2320.312500	-107.389389
2343.750000	-96.216568
2367.187500	-94.238159
2390.625000	-99.987236
2414.062500	-109.111267
2437.500000	-111.631111
2460.937500	-108.992691
2484.375000	-97.929298
2507.812500	-93.852394
2531.250000	-97.562241
2554.687500	-108.654991
2578.125000	-114.507744
2601.562500	-113.596657
2625.000000	-113.168716
2648.437500	-103.981430
2671.875000	-97.793968
2695.312500	-101.569641
2718.750000	-114.810799
2742.187500	-112.275703
2765.625000	-105.035530
2789.062500	-98.692650
2812.500000	-95.440292
2835.937500	-97.413528
2859.375000	-102.865875
2882.812500	-112.087173
2906.250000	-115.188660
2929.687500	-115.694397
2953.125000	-114.577835
2976.562500	-111.793198
3000.000000	-102.859261
3023.437500	-101.177063
3046.875000	-108.360451
3070.312500	-115.709747
3093.750000	-112.997528
3117.187500	-111.917671
3140.625000	-114.290024
3164.062500	-112.108505
3187.500000	-105.764908
3210.937500	-103.862335
3234.375000	-111.919868
3257.812500	-121.296593
3281.250000	-119.669159
3304.687500	-116.432190
3328.125000	-107.976906
3351.562500	-108.252884
3375.000000	-110.511292
3398.437500	-107.419922
3421.875000	-110.253479
3445.312500	-119.622520
3468.750000	-121.800323
3492.187500	-119.137527
3515.625000	-112.726799
3539.062500	-109.786095
3562.500000	-109.020851
3585.937500	-107.878754
3609.375000	-113.192108
3632.812500	-116.378464
3656.250000	-120.926308
3679.687500	-122.505447
3703.125000	-120.117310
3726.562500	-119.760170
3750.000000	-122.384415
3773.437500	-119.223785
3796.875000	-117.842445
3820.312500	-110.496948
3843.750000	-110.376633
3867.187500	-116.210297
3890.625000	-123.255638
3914.062500	-124.142891
3937.500000	-123.510681
3960.937500	-123.054665
3984.375000	-120.862923
4007.812500	-121.231850
4031.250000	-121.300285
4054.687500	-117.163750
4078.125000	-117.696228
4101.562500	-122.631035
4125.000000	-125.137924
4148.437500	-125.769814
4171.875000	-124.384056
4195.312500	-122.462753
4218.750000	-122.835503
4242.187500	-118.253654
4265.625000	-119.202339
4289.062500	-123.037201
4312.500000	-116.591789
4335.937500	-111.214981
4359.375000	-115.869125
4382.812500	-124.514832
4406.250000	-125.707283
4429.687500	-126.140282
4453.125000	-125.269394
4476.562500	-118.636330
4500.000000	-111.531158
4523.437500	-111.952942
4546.875000	-118.294563
4570.312500	-119.765198
4593.750000	-117.101776
4617.187500	-120.309196
4640.625000	-124.454628
4664.062500	-125.512825
4687.500000	-126.507492
4710.937500	-126.922081
4734.375000	-126.248482
4757.812500	-123.246277
4781.250000	-122.988243
4804.687500	-125.793793
4828.125000	-126.327049
4851.562500	-125.926514
4875.000000	-125.604019
4898.437500	-124.721939
4921.875000	-124.209938
4945.312500	-124.258125
4968.750000	-125.521240
4992.187500	-126.641663
5015.625000	-126.584373
5039.062500	-125.979744
5062.500000	-125.438713
5085.937500	-125.998619
5109.375000	-127.144745
5132.812500	-125.795036
5156.250000	-124.952141
5179.687500	-124.523262
5203.125000	-124.984871
5226.562500	-125.042587
5250.000000	-126.420609
5273.437500	-126.898666
5296.875000	-127.528229
5320.312500	-127.103149
5343.750000	-126.252213
5367.187500	-125.347504
5390.625000	-126.363541
5414.062500	-126.830750
5437.500000	-124.676910
5460.937500	-122.815536
5484.375000	-123.113487
5507.812500	-126.301292
5531.250000	-126.920212
5554.687500	-127.439629
5578.125000	-127.514427
5601.562500	-126.320351
5625.000000	-126.539902
5648.437500	-127.361153
5671.875000	-126.999634
5695.312500	-126.644035
5718.750000	-126.587578
5742.187500	-127.568192
5765.625000	-127.407143
5789.062500	-127.826454
5812.500000	-128.027161
5835.937500	-127.565384
5859.375000	-127.306702
5882.812500	-127.118904
5906.250000	-127.074257
5929.687500	-127.663551
5953.125000	-128.158615
5976.562500	-127.614586
6000.000000	-127.146049
6023.437500	-127.608109
6046.875000	-127.498688
6070.312500	-126.663757
6093.750000	-127.106773
6117.187500	-128.140869
6140.625000	-127.141518
6164.062500	-124.107719
6187.500000	-124.063652
6210.937500	-127.218018
6234.375000	-127.862122
6257.812500	-127.448303
6281.250000	-127.259857
6304.687500	-127.593330
6328.125000	-128.065720
6351.562500	-127.627174
6375.000000	-126.556618
6398.437500	-126.985924
6421.875000	-127.573128
6445.312500	-126.569061
6468.750000	-126.305199
6492.187500	-126.116905
6515.625000	-126.609375
6539.062500	-127.632256
6562.500000	-127.683823
6585.937500	-127.580086
6609.375000	-128.024353
6632.812500	-128.059448
6656.250000	-128.145599
6679.687500	-128.166473
6703.125000	-128.087219
6726.562500	-128.146317
6750.000000	-128.189651
6773.437500	-127.931175
6796.875000	-127.821236
6820.312500	-127.525375
6843.750000	-127.785049
6867.187500	-127.889107
6890.625000	-127.736847
6914.062500	-128.035187
6937.500000	-127.720894
6960.937500	-127.808563
6984.375000	-127.438263
7007.812500	-127.300896
7031.250000	-126.452484
7054.687500	-127.411522
7078.125000	-128.328995
7101.562500	-128.289703
7125.000000	-127.988068
7148.437500	-127.932350
7171.875000	-128.099182
7195.312500	-127.705643
7218.750000	-127.636971
7242.187500	-128.132690
7265.625000	-128.292389
7289.062500	-128.128632
7312.500000	-128.106400
7335.937500	-128.019562
7359.375000	-128.218353
7382.812500	-128.136475
7406.250000	-127.568047
7429.687500	-127.978035
7453.125000	-127.936005
7476.562500	-127.678322
7500.000000	-127.236847
7523.437500	-127.611084
7546.875000	-128.376251
7570.312500	-128.338318
7593.750000	-128.221664
7617.187500	-127.772385
7640.625000	-128.016174
7664.062500	-128.308136
7687.500000	-128.386765
7710.937500	-128.110153
7734.375000	-128.280319
7757.812500	-128.367218
7781.250000	-127.807121
7804.687500	-127.914543
7828.125000	-128.118073
7851.562500	-128.125778
7875.000000	-128.405273
7898.437500	-128.371964
7921.875000	-128.177902
7945.312500	-128.405548
7968.750000	-128.432022
7992.187500	-128.308762
8015.625000	-128.449875
8039.062500	-128.336014
8062.500000	-128.225067
8085.937500	-128.350174
8109.375000	-128.262772
8132.812500	-128.100159
8156.250000	-128.072464
8179.687500	-128.364594
8203.125000	-128.376678
8226.562500	-128.280853
8250.000000	-128.295151
8273.437500	-128.184235
8296.875000	-128.336945
8320.312500	-128.351883
8343.750000	-128.323593
8367.187500	-128.371307
8390.625000	-128.207535
8414.062500	-127.967690
8437.500000	-128.057617
8460.937500	-128.391037
8484.375000	-128.413010
8507.812500	-128.083023
8531.250000	-127.933907
8554.687500	-127.714943
8578.125000	-128.093643
8601.562500	-128.316055
8625.000000	-128.345810
8648.437500	-128.323593
8671.875000	-128.259949
8695.312500	-128.322433
8718.750000	-128.439102
8742.187500	-128.540512
8765.625000	-128.489182
8789.062500	-128.525696
8812.500000	-128.438614
8835.937500	-128.320389
8859.375000	-128.397141
8882.812500	-128.613068
8906.250000	-128.373474
8929.687500	-128.103867
8953.125000	-128.319672
8976.562500	-128.533157
9000.000000	-128.388840
9023.437500	-128.457642
9046.875000	-128.425888
9070.312500	-128.384430
9093.750000	-128.400375
9117.187500	-128.383804
9140.625000	-128.633102
9164.062500	-128.647690
9187.500000	-128.637558
9210.937500	-128.572525
9234.375000	-128.281677
9257.812500	-128.176025
9281.250000	-128.135300
9304.687500	-128.201294
9328.125000	-128.360382
9351.562500	-128.336746
9375.000000	-128.304718
9398.437500	-128.476181
9421.875000	-128.692352
9445.312500	-128.681412
9468.750000	-128.653091
9492.187500	-128.501801
9515.625000	-128.449875
9539.062500	-128.689835
9562.500000	-128.584274
9585.937500	-128.567307
9609.375000	-128.469482
9632.812500	-128.267151
9656.250000	-128.475861
9679.687500	-128.763657
9703.125000	-128.689163
9726.562500	-128.807770
9750.000000	-128.943512
9773.437500	-128.801895
9796.875000	-128.945190
9820.312500	-128.887283
9843.750000	-128.421539
9867.187500	-128.570984
9890.625000	-128.842758
9914.062500	-128.775085
9937.500000	-128.665100
9960.937500	-128.592346
9984.375000	-128.669662
10007.812500	-128.748749
10031.250000	-128.784637
10054.687500	-128.859665
10078.125000	-128.989990
10101.562500	-129.033463
10125.000000	-128.792847
10148.437500	-128.663254
10171.875000	-128.710861
10195.312500	-128.729538
10218.750000	-128.748871
10242.187500	-128.976898
10265.625000	-128.938599
10289.062500	-128.858597
10312.500000	-128.653290
10335.937500	-128.415054
10359.375000	-128.644714
10382.812500	-128.659180
10406.250000	-128.708206
10429.687500	-128.749832
10453.125000	-128.663544
10476.562500	-128.837906
10500.000000	-128.874008
10523.437500	-128.882980
10546.875000	-128.866257
10570.312500	-128.941101
10593.750000	-128.910904
10617.187500	-128.931580
10640.625000	-129.003052
10664.062500	-128.977173
10687.500000	-129.115326
10710.937500	-128.977188
10734.375000	-128.674347
10757.812500	-128.817429
10781.250000	-128.806625
10804.687500	-128.860733
10828.125000	-128.834457
10851.562500	-128.868134
10875.000000	-128.996277
10898.437500	-129.034714
10921.875000	-128.971268
10945.312500	-129.028702
10968.750000	-128.967117
10992.187500	-128.553177
11015.625000	-128.618607
11039.062500	-128.794586
11062.500000	-128.692520
11085.937500	-128.854309
11109.375000	-128.901276
11132.812500	-128.896286
11156.250000	-128.811417
11179.687500	-128.547424
11203.125000	-128.599930
11226.562500	-128.730148
11250.000000	-128.893326
11273.437500	-129.038025
11296.875000	-129.068954
11320.312500	-129.012466
11343.750000	-128.940247
11367.187500	-128.894058
11390.625000	-129.097733
11414.062500	-128.969360
11437.500000	-129.060806
11460.937500	-128.974457
11484.375000	-128.746063
11507.812500	-128.426514
11531.250000	-128.497086
11554.687500	-128.915985
11578.125000	-128.945404
11601.562500	-129.067963
11625.000000	-129.143051
11648.437500	-128.899017
11671.875000	-128.771133
11695.312500	-128.633774
11718.750000	-128.671371
11742.187500	-128.712936
11765.625000	-128.746689
11789.062500	-128.743896
11812.500000	-128.819412
11835.937500	-128.733185
11859.375000	-128.615677
11882.812500	-128.863800
11906.250000	-128.895416
11929.687500	-129.078201
11953.125000	-128.933258
11976.562500	-128.730865
12000.000000	-128.906891
12023.437500	-128.864914
12046.875000	-128.927200
12070.312500	-128.984344
12093.750000	-129.038223
12117.187500	-129.040833
12140.625000	-128.962997
12164.062500	-129.000717
12187.500000	-129.032227
12210.937500	-128.956070
12234.375000	-129.075592
12257.812500	-128.922897
12281.250000	-128.925110
12304.687500	-129.010757
12328.125000	-128.931854
12351.562500	-129.042267
12375.000000	-128.958054
12398.437500	-128.942825
12421.875000	-128.854126
12445.312500	-128.974472
12468.750000	-129.111710
12492.187500	-128.880493
12515.625000	-128.893066
12539.062500	-129.048721
12562.500000	-128.988098
12585.937500	-128.849594
12609.375000	-128.909302
12632.812500	-129.053909
12656.250000	-129.030807
12679.687500	-129.075790
12703.125000	-129.048569
12726.562500	-128.959427
12750.000000	-129.033508
12773.437500	-128.992523
12796.875000	-128.927551
12820.312500	-128.937134
12843.750000	-128.989975
12867.187500	-129.120224
12890.625000	-129.065948
12914.062500	-129.108215
12937.500000	-129.051361
12960.937500	-129.020905
12984.375000	-129.056152
13007.812500	-129.063049
13031.250000	-128.974152
13054.687500	-128.957092
13078.125000	-129.248230
13101.562500	-129.226273
13125.000000	-129.156418
13148.437500	-129.161255
13171.875000	-129.103134
13195.312500	-129.054581
13218.750000	-128.989594
13242.187500	-128.960785
13265.625000	-128.994843
13289.062500	-129.083664
13312.500000	-129.128250
13335.937500	-128.997284
13359.375000	-129.032349
13382.812500	-129.030273
13406.250000	-129.061295
13429.687500	-129.106766
13453.125000	-129.187149
13476.562500	-129.202530
13500.000000	-129.101257
13523.437500	-129.181702
13546.875000	-129.200912
13570.312500	-129.042816
13593.750000	-129.029831
13617.187500	-129.050980
13640.625000	-129.089462
13664.062500	-129.068298
13687.500000	-129.120300
13710.937500	-129.188324
13734.375000	-129.203186
13757.812500	-129.218857
13781.250000	-129.230606
13804.687500	-129.200500
13828.125000	-129.118759
13851.562500	-129.064407
13875.000000	-129.053879
13898.437500	-129.007690
13921.875000	-129.101135
13945.312500	-129.225250
13968.750000	-129.044785
13992.187500	-129.197662
14015.625000	-129.236374
14039.062500	-129.170593
14062.500000	-129.150238
14085.937500	-129.099686
14109.375000	-129.012421
14132.812500	-129.064255
14156.250000	-129.113190
14179.687500	-129.157272
14203.125000	-129.183807
14226.562500	-129.069550
14250.000000	-129.069778
14273.437500	-129.132599
14296.875000	-129.108093
14320.312500	-129.119980
14343.750000	-129.153091
14367.187500	-129.097092
14390.625000	-129.088425
14414.062500	-129.119827
14437.500000	-129.133698
14460.937500	-129.047348
14484.375000	-128.990692
14507.812500	-129.152252
14531.250000	-129.213821
14554.687500	-129.151840
14578.125000	-129.197342
14601.562500	-129.285400
14625.000000	-129.184387
14648.437500	-129.115067
14671.875000	-129.207535
14695.312500	-129.256744
14718.750000	-129.248459
14742.187500	-129.198776
14765.625000	-129.185287
14789.062500	-129.169449
14812.500000	-129.188461
14835.937500	-129.160568
14859.375000	-129.205811
14882.812500	-129.207153
14906.250000	-129.224609
14929.687500	-129.329605
14953.125000	-129.228958
14976.562500	-129.168716
15000.000000	-129.144974
15023.437500	-129.202301
15046.875000	-129.161682
15070.312500	-129.122711
15093.750000	-129.258118
15117.187500	-129.267075
15140.625000	-129.252716
15164.062500	-129.247330
15187.500000	-129.273422
15210.937500	-129.240250
15234.375000	-129.322876
15257.812500	-129.450012
15281.250000	-129.325653
15304.687500	-129.263611
15328.125000	-129.261734
15351.562500	-129.283600
15375.000000	-129.269058
15398.437500	-129.232330
15421.875000	-129.200089
15445.312500	-129.169907
15468.750000	-129.157257
15492.187500	-129.183960
15515.625000	-129.160416
15539.062500	-129.272964
15562.500000	-129.209778
15585.937500	-129.303116
15609.375000	-129.301865
15632.812500	-129.132339
15656.250000	-129.156921
15679.687500	-129.235031
15703.125000	-129.157578
15726.562500	-129.049393
15750.000000	-129.084595
15773.437500	-129.130997
15796.875000	-129.180923
15820.312500	-129.206070
15843.750000	-129.154495
15867.187500	-129.210022
15890.625000	-129.200439
15914.062500	-129.146286
15937.500000	-129.101776
15960.937500	-129.044739
15984.375000	-129.193039
16007.812500	-129.247696
16031.250000	-129.132004
16054.687500	-129.143631
16078.125000	-129.095947
16101.562500	-129.203522
16125.000000	-129.156326
16148.437500	-129.172806
16171.875000	-129.188568
16195.312500	-129.186569
16218.750000	-129.160156
16242.187500	-129.289764
16265.625000	-129.238342
16289.062500	-129.094147
16312.500000	-129.028488
16335.937500	-129.184067
16359.375000	-129.196518
16382.812500	-129.210068
16406.250000	-129.180267
16429.687500	-129.139450
16453.125000	-129.152435
16476.562500	-129.175858
16500.000000	-129.115173
16523.437500	-129.219986
16546.875000	-129.327087
16570.312500	-129.262299
16593.750000	-129.262619
16617.187500	-129.237015
16640.625000	-129.206100
16664.062500	-129.265640
16687.500000	-129.287201
16710.937500	-129.298676
16734.375000	-129.282974
16757.812500	-129.287323
16781.250000	-129.291794
16804.687500	-129.288559
16828.125000	-129.180511
16851.562500	-129.148911
16875.000000	-129.222672
16898.437500	-129.292892
16921.875000	-129.325699
16945.312500	-129.252396
16968.750000	-129.219452
16992.187500	-129.131546
17015.625000	-129.191635
17039.062500	-129.220459
17062.500000	-129.113434
17085.937500	-129.181458
17109.375000	-129.281677
17132.812500	-129.276764
17156.250000	-129.203491
17179.687500	-129.188293
17203.125000	-129.211472
17226.562500	-129.308640
17250.000000	-129.266708
17273.437500	-129.296082
17296.875000	-129.262558
17320.312500	-129.196472
17343.750000	-129.310715
17367.187500	-129.292221
17390.625000	-129.204742
17414.062500	-129.258728
17437.500000	-129.284897
17460.937500	-129.338394
17484.375000	-129.374954
17507.812500	-129.295883
17531.250000	-129.341080
17554.687500	-129.244522
17578.125000	-129.292114
17601.562500	-129.376297
17625.000000	-129.255524
17648.437500	-129.280014
17671.875000	-129.260300
17695.312500	-129.239639
17718.750000	-129.256866
17742.187500	-129.184479
17765.625000	-129.218994
17789.062500	-129.234192
17812.500000	-129.265167
17835.937500	-129.272293
17859.375000	-129.244537
17882.812500	-129.126587
17906.250000	-129.226852
17929.687500	-129.269226
17953.125000	-129.274200
17976.562500	-129.238312
18000.000000	-129.219818
18023.437500	-129.263794
18046.875000	-129.251175
18070.312500	-129.226273
18093.750000	-129.275269
18117.187500	-129.320297
18140.625000	-129.289154
18164.062500	-129.302933
18187.500000	-129.320877
18210.937500	-129.183075
18234.375000	-129.177017
18257.812500	-129.240845
18281.250000	-129.290085
18304.687500	-129.298630
18328.125000	-129.229141
18351.562500	-129.318192
18375.000000	-129.341446
18398.437500	-129.253159
18421.875000	-129.190002
18445.312500	-129.278336
18468.750000	-129.286942
18492.187500	-129.238312
18515.625000	-129.410034
