주파수 (Hz)	레벨 (dB)
23.437500	-92.343040
46.875000	-78.283882
70.312500	-63.778885
93.750000	-55.992378
117.187500	-52.196045
140.625000	-51.236443
164.062500	-52.734917
187.500000	-49.957027
210.937500	-48.790165
234.375000	-47.509487
257.812500	-45.743050
281.250000	-46.082798
304.687500	-45.590946
328.125000	-45.243950
351.562500	-44.085270
375.000000	-46.962158
398.437500	-46.679089
421.875000	-47.423794
445.312500	-43.660728
468.750000	-41.774197
492.187500	-47.395519
515.625000	-46.367325
539.062500	-44.229488
562.500000	-43.920120
585.937500	-48.390335
609.375000	-44.442875
632.812500	-42.992405
656.250000	-50.931351
679.687500	-48.466568
703.125000	-44.193039
726.562500	-50.000046
750.000000	-55.798656
773.437500	-50.963970
796.875000	-50.550499
820.312500	-49.461922
843.750000	-48.931973
867.187500	-56.093300
890.625000	-55.934654
914.062500	-55.077435
937.500000	-52.286438
960.937500	-57.510658
984.375000	-58.038506
1007.812500	-60.205944
1031.250000	-52.909424
1054.687500	-49.490993
1078.125000	-55.963886
1101.562500	-59.011211
1125.000000	-61.736145
1148.437500	-64.307968
1171.875000	-58.419861
1195.312500	-60.187363
1218.750000	-62.139824
1242.187500	-57.969704
1265.625000	-59.374023
1289.062500	-66.236343
1312.500000	-63.748657
1335.937500	-63.620686
1359.375000	-66.491188
1382.812500	-60.925804
1406.250000	-56.354839
1429.687500	-61.221169
1453.125000	-64.225250
1476.562500	-62.864231
1500.000000	-65.768066
1523.437500	-67.526817
1546.875000	-65.815254
1570.312500	-61.343811
1593.750000	-62.329689
1617.187500	-68.674622
1640.625000	-67.122375
1664.062500	-64.122070
1687.500000	-65.532570
1710.937500	-70.347298
1734.375000	-68.146408
1757.812500	-62.166237
1781.250000	-61.882710
1804.687500	-68.540695
1828.125000	-69.018005
1851.562500	-66.007706
1875.000000	-61.866741
1898.437500	-63.504990
1921.875000	-70.729698
1945.312500	-72.284637
1968.750000	-68.442741
1992.187500	-65.644051
2015.625000	-70.028061
2039.062500	-75.844009
2062.500000	-72.587975
2085.937500	-65.735207
2109.375000	-62.251961
2132.812500	-64.443283
2156.250000	-72.296043
2179.687500	-72.503090
2203.125000	-69.356117
2226.562500	-70.311356
2250.000000	-71.643166
2273.437500	-75.710472
2296.875000	-76.858315
2320.312500	-73.926682
2343.750000	-69.659225
2367.187500	-66.298859
2390.625000	-67.688759
2414.062500	-74.741699
2437.500000	-77.587379
2460.937500	-71.326225
2484.375000	-67.015129
2507.812500	-66.972061
2531.250000	-65.717392
2554.687500	-72.321922
2578.125000	-78.853729
2601.562500	-78.818085
2625.000000	-78.379158
2648.437500	-74.170288
2671.875000	-72.069717
2695.312500	-74.320679
2718.750000	-79.384598
2742.187500	-79.334900
2765.625000	-75.254341
2789.062500	-72.170013
2812.500000	-72.168411
2835.937500	-68.639137
2859.375000	-69.716286
2882.812500	-76.602448
2906.250000	-79.543404
2929.687500	-79.144485
2953.125000	-74.677139
2976.562500	-75.734306
3000.000000	-79.660591
3023.437500	-80.125000
3046.875000	-81.474129
3070.312500	-81.843025
3093.750000	-74.720551
3117.187500	-77.240517
3140.625000	-76.731087
3164.062500	-71.941559
3187.500000	-71.790550
3210.937500	-73.669281
3234.375000	-79.092552
3257.812500	-85.541893
3281.250000	-84.403549
3304.687500	-83.768791
3328.125000	-75.854195
3351.562500	-76.517647
3375.000000	-79.952614
3398.437500	-78.137558
3421.875000	-80.320862
3445.312500	-85.891281
3468.750000	-86.716019
3492.187500	-83.051926
3515.625000	-82.559784
3539.062500	-82.755188
3562.500000	-81.384781
3585.937500	-78.965752
3609.375000	-75.661095
3632.812500	-76.080177
3656.250000	-83.157738
3679.687500	-85.519714
3703.125000	-83.151405
3726.562500	-85.856071
3750.000000	-75.406006
3773.437500	-73.381393
3796.875000	-79.920380
3820.312500	-77.491440
3843.750000	-75.184357
3867.187500	-78.869041
3890.625000	-89.056465
3914.062500	-91.987923
3937.500000	-87.763504
3960.937500	-85.709671
3984.375000	-80.902000
4007.812500	-79.605637
4031.250000	-85.125778
4054.687500	-89.117897
4078.125000	-87.327255
4101.562500	-88.323097
4125.000000	-91.158226
4148.437500	-93.516922
4171.875000	-93.140289
4195.312500	-90.410255
4218.750000	-89.398270
4242.187500	-85.660301
4265.625000	-86.288345
4289.062500	-87.121605
4312.500000	-83.705231
4335.937500	-81.032242
4359.375000	-84.437958
4382.812500	-91.842171
4406.250000	-92.881714
4429.687500	-92.412941
4453.125000	-91.565842
4476.562500	-84.508583
4500.000000	-81.903824
4523.437500	-85.528053
4546.875000	-86.133034
4570.312500	-88.511086
4593.750000	-86.546097
4617.187500	-89.754990
4640.625000	-94.229942
4664.062500	-96.146461
4687.500000	-92.828293
4710.937500	-94.146286
4734.375000	-88.365540
4757.812500	-88.962463
4781.250000	-91.737839
4804.687500	-90.197655
4828.125000	-89.682076
4851.562500	-89.457756
4875.000000	-91.713348
4898.437500	-93.691566
4921.875000	-92.321617
4945.312500	-94.297333
4968.750000	-100.711342
4992.187500	-102.369385
5015.625000	-98.636665
5039.062500	-93.879662
5062.500000	-91.714821
5085.937500	-95.143028
5109.375000	-98.008781
5132.812500	-92.402863
5156.250000	-88.012695
5179.687500	-88.259712
5203.125000	-95.723000
5226.562500	-99.819695
5250.000000	-100.493721
5273.437500	-103.170479
5296.875000	-106.612885
5320.312500	-102.355225
5343.750000	-98.146744
5367.187500	-97.113838
5390.625000	-99.440285
5414.062500	-99.369705
5437.500000	-99.641983
5460.937500	-100.070869
5484.375000	-95.427284
5507.812500	-96.534134
5531.250000	-97.667358
5554.687500	-95.519341
5578.125000	-100.264648
5601.562500	-102.639359
5625.000000	-103.502205
5648.437500	-106.117065
5671.875000	-104.961021
5695.312500	-100.538795
5718.750000	-96.031418
5742.187500	-93.609749
5765.625000	-97.573135
5789.062500	-102.180801
5812.500000	-95.741913
5835.937500	-90.282425
5859.375000	-93.465523
5882.812500	-100.673409
5906.250000	-100.098000
5929.687500	-102.134598
5953.125000	-98.955231
5976.562500	-98.794403
6000.000000	-102.555496
6023.437500	-106.533409
6046.875000	-106.485924
6070.312500	-104.583374
6093.750000	-101.851952
6117.187500	-101.789642
6140.625000	-101.763985
6164.062500	-90.609680
6187.500000	-88.240662
6210.937500	-94.817879
6234.375000	-104.833466
6257.812500	-106.744957
6281.250000	-102.444946
6304.687500	-100.000473
6328.125000	-103.316803
6351.562500	-102.287315
6375.000000	-99.809601
6398.437500	-102.390259
6421.875000	-106.527618
6445.312500	-104.077049
6468.750000	-100.912178
6492.187500	-100.922585
6515.625000	-102.539085
6539.062500	-105.142075
6562.500000	-100.322548
6585.937500	-96.422409
6609.375000	-98.474968
6632.812500	-103.560425
6656.250000	-105.493355
6679.687500	-102.695122
6703.125000	-103.439018
6726.562500	-105.407219
6750.000000	-104.106705
6773.437500	-99.253693
6796.875000	-100.377007
6820.312500	-106.997810
6843.750000	-107.945793
6867.187500	-106.982841
6890.625000	-104.248032
6914.062500	-104.687050
6937.500000	-106.174629
6960.937500	-101.828789
6984.375000	-99.786430
7007.812500	-101.002647
7031.250000	-98.947472
7054.687500	-102.593498
7078.125000	-110.244026
7101.562500	-110.452965
7125.000000	-106.595276
7148.437500	-103.852066
7171.875000	-102.963051
7195.312500	-104.842110
7218.750000	-106.438339
7242.187500	-106.880806
7265.625000	-104.626602
7289.062500	-105.883095
7312.500000	-109.416611
7335.937500	-109.405922
7359.375000	-109.186401
7382.812500	-102.370110
7406.250000	-101.688728
7429.687500	-104.904297
7453.125000	-106.084747
7476.562500	-100.306862
7500.000000	-95.112854
7523.437500	-97.308754
7546.875000	-105.684280
7570.312500	-107.804855
7593.750000	-104.020279
7617.187500	-102.575577
7640.625000	-108.494034
7664.062500	-110.854065
7687.500000	-110.307213
7710.937500	-110.106850
7734.375000	-109.523323
7757.812500	-108.855904
7781.250000	-108.170868
7804.687500	-106.788445
7828.125000	-106.812454
7851.562500	-107.869598
7875.000000	-110.271675
7898.437500	-111.105339
7921.875000	-110.226364
7945.312500	-108.539391
7968.750000	-103.832207
7992.187500	-104.174904
8015.625000	-106.647949
8039.062500	-109.324455
8062.500000	-109.023651
8085.937500	-109.133095
8109.375000	-110.590935
8132.812500	-112.177872
8156.250000	-111.192490
8179.687500	-110.833717
8203.125000	-110.810242
8226.562500	-111.496170
8250.000000	-112.086868
8273.437500	-110.063675
8296.875000	-108.141548
8320.312500	-107.038681
8343.750000	-109.590355
8367.187500	-112.461151
8390.625000	-112.872002
8414.062500	-109.666138
8437.500000	-107.564453
8460.937500	-106.888496
8484.375000	-110.159019
8507.812500	-114.351997
8531.250000	-114.044441
8554.687500	-112.452248
8578.125000	-112.688438
8601.562500	-112.434502
8625.000000	-113.529594
8648.437500	-114.835098
8671.875000	-114.233116
8695.312500	-114.333923
8718.750000	-114.033501
8742.187500	-114.571526
8765.625000	-115.602104
8789.062500	-114.970322
8812.500000	-114.669884
8835.937500	-115.798431
8859.375000	-115.170715
8882.812500	-113.753380
8906.250000	-114.001106
8929.687500	-115.385925
8953.125000	-115.760376
8976.562500	-113.792137
9000.000000	-112.051720
9023.437500	-112.201256
9046.875000	-113.031158
9070.312500	-112.260956
9093.750000	-107.448761
9117.187500	-105.407669
9140.625000	-109.105003
9164.062500	-114.404564
9187.500000	-116.316986
9210.937500	-117.206520
9234.375000	-116.381813
9257.812500	-115.389526
9281.250000	-113.878685
9304.687500	-113.629494
9328.125000	-115.344452
9351.562500	-115.987839
9375.000000	-115.158859
9398.437500	-112.809723
9421.875000	-111.575874
9445.312500	-113.419647
9468.750000	-115.732178
9492.187500	-115.984322
9515.625000	-116.714447
9539.062500	-117.337486
9562.500000	-116.682014
9585.937500	-116.430023
9609.375000	-115.421913
9632.812500	-113.933205
9656.250000	-113.339378
9679.687500	-114.587807
9703.125000	-113.817261
9726.562500	-115.460869
9750.000000	-117.174515
9773.437500	-117.827446
9796.875000	-117.967987
9820.312500	-117.990143
9843.750000	-117.499352
9867.187500	-117.411697
9890.625000	-117.976608
9914.062500	-118.091682
9937.500000	-117.639412
9960.937500	-117.695839
9984.375000	-117.636040
10007.812500	-117.714760
10031.250000	-117.996254
10054.687500	-117.910583
10078.125000	-117.471886
10101.562500	-118.115303
10125.000000	-118.530533
10148.437500	-117.872002
10171.875000	-118.253311
10195.312500	-118.308281
10218.750000	-117.600540
10242.187500	-116.212753
10265.625000	-114.562492
10289.062500	-114.953285
10312.500000	-116.597267
10335.937500	-118.383598
10359.375000	-118.555542
10382.812500	-117.174446
10406.250000	-117.301514
10429.687500	-117.188393
10453.125000	-117.054184
10476.562500	-117.215965
10500.000000	-114.629234
10523.437500	-117.331108
10546.875000	-118.929886
10570.312500	-118.887070
10593.750000	-118.673058
10617.187500	-119.199905
10640.625000	-119.568909
10664.062500	-119.411797
10687.500000	-119.662056
10710.937500	-119.632904
10734.375000	-119.191475
10757.812500	-118.438034
10781.250000	-117.786293
10804.687500	-119.229240
10828.125000	-119.821762
10851.562500	-120.000443
10875.000000	-119.868271
10898.437500	-119.186119
10921.875000	-119.323563
10945.312500	-119.903351
10968.750000	-119.957405
10992.187500	-119.781578
11015.625000	-119.847717
11039.062500	-119.771004
11062.500000	-119.160751
11085.937500	-118.550865
11109.375000	-119.012199
11132.812500	-119.695045
11156.250000	-119.913940
11179.687500	-119.691399
11203.125000	-119.739662
11226.562500	-119.951965
11250.000000	-120.058334
11273.437500	-120.261772
11296.875000	-119.980034
11320.312500	-118.988159
11343.750000	-118.346848
11367.187500	-116.856110
11390.625000	-117.232582
11414.062500	-118.271309
11437.500000	-118.805374
11460.937500	-119.272911
11484.375000	-119.546562
11507.812500	-119.322166
11531.250000	-119.236458
11554.687500	-119.203362
11578.125000	-119.190186
11601.562500	-119.332703
11625.000000	-118.883598
11648.437500	-119.272987
11671.875000	-119.361511
11695.312500	-119.034019
11718.750000	-118.589241
11742.187500	-118.682663
11765.625000	-118.843559
11789.062500	-118.834114
11812.500000	-118.770119
11835.937500	-119.360031
11859.375000	-119.621468
11882.812500	-119.680069
11906.250000	-119.372253
11929.687500	-119.806664
11953.125000	-119.809784
11976.562500	-118.259933
12000.000000	-115.473152
12023.437500	-117.811874
12046.875000	-118.674530
12070.312500	-118.555336
12093.750000	-119.362099
12117.187500	-120.034134
12140.625000	-120.136581
12164.062500	-119.845406
12187.500000	-118.998940
12210.937500	-118.673553
12234.375000	-119.330910
12257.812500	-119.793198
12281.250000	-119.771904
12304.687500	-119.702545
12328.125000	-119.848923
12351.562500	-119.914177
12375.000000	-119.711380
12398.437500	-119.897385
12421.875000	-119.904968
12445.312500	-119.558151
12468.750000	-119.574852
12492.187500	-119.717422
12515.625000	-119.447037
12539.062500	-119.747292
12562.500000	-119.425301
12585.937500	-119.075600
12609.375000	-118.678238
12632.812500	-118.511421
12656.250000	-118.694824
12679.687500	-118.857140
12703.125000	-118.809898
12726.562500	-119.006783
12750.000000	-119.630226
12773.437500	-119.721222
12796.875000	-118.975418
12820.312500	-118.755638
12843.750000	-118.818878
12867.187500	-119.490570
12890.625000	-119.669991
12914.062500	-119.920059
12937.500000	-119.931824
12960.937500	-120.005028
12984.375000	-120.195099
13007.812500	-119.897903
13031.250000	-120.194389
13054.687500	-120.071236
13078.125000	-120.222382
13101.562500	-120.054619
13125.000000	-120.008835
13148.437500	-120.098282
13171.875000	-119.947639
13195.312500	-119.430267
13218.750000	-119.655373
13242.187500	-119.974434
13265.625000	-120.267860
13289.062500	-120.422920
13312.500000	-120.676292
13335.937500	-120.691490
13359.375000	-120.433723
13382.812500	-119.968987
13406.250000	-120.120216
13429.687500	-120.708382
13453.125000	-120.805801
13476.562500	-119.370064
13500.000000	-117.396774
13523.437500	-119.424957
13546.875000	-120.760162
13570.312500	-120.796730
13593.750000	-120.945969
13617.187500	-121.024780
13640.625000	-120.950294
13664.062500	-120.648445
13687.500000	-120.704208
13710.937500	-120.910568
13734.375000	-120.244911
13757.812500	-120.381264
13781.250000	-120.856659
13804.687500	-120.590111
13828.125000	-120.201256
13851.562500	-120.250137
13875.000000	-120.858261
13898.437500	-120.900520
13921.875000	-120.886276
13945.312500	-120.715530
13968.750000	-120.629181
13992.187500	-120.972404
14015.625000	-121.327049
14039.062500	-121.204422
14062.500000	-121.060555
14085.937500	-120.912880
14109.375000	-120.451569
14132.812500	-120.917511
14156.250000	-121.240456
14179.687500	-121.295563
14203.125000	-121.419724
14226.562500	-121.494743
14250.000000	-121.495514
14273.437500	-121.346336
14296.875000	-121.332779
14320.312500	-121.230110
14343.750000	-121.190460
14367.187500	-121.156891
14390.625000	-121.190178
14414.062500	-121.104706
14437.500000	-120.941338
14460.937500	-121.282150
14484.375000	-121.663277
14507.812500	-121.907257
14531.250000	-121.881180
14554.687500	-121.703430
14578.125000	-121.691437
14601.562500	-121.738686
14625.000000	-121.463493
14648.437500	-121.388954
14671.875000	-121.760818
14695.312500	-121.649948
14718.750000	-121.553108
14742.187500	-121.663399
14765.625000	-121.786781
14789.062500	-121.838318
14812.500000	-121.669609
14835.937500	-121.784454
14859.375000	-121.905861
14882.812500	-121.932961
14906.250000	-121.848305
14929.687500	-121.867523
14953.125000	-121.666702
14976.562500	-121.341187
15000.000000	-120.286888
15023.437500	-121.521400
15046.875000	-121.952629
15070.312500	-122.030853
15093.750000	-122.125488
15117.187500	-121.939766
15140.625000	-122.201042
15164.062500	-122.121986
15187.500000	-121.809731
15210.937500	-121.803322
15234.375000	-121.949303
15257.812500	-122.108955
15281.250000	-122.183319
15304.687500	-122.244583
15328.125000	-122.356293
15351.562500	-122.404404
15375.000000	-122.361946
15398.437500	-122.312599
15421.875000	-122.331360
15445.312500	-122.263191
15468.750000	-122.017693
15492.187500	-121.885033
15515.625000	-122.048332
15539.062500	-122.076340
15562.500000	-122.190651
15585.937500	-122.166595
15609.375000	-122.200356
15632.812500	-122.225327
15656.250000	-122.281731
15679.687500	-122.366714
15703.125000	-122.257790
15726.562500	-121.875824
15750.000000	-121.496277
15773.437500	-121.750229
15796.875000	-122.165863
15820.312500	-122.253044
15843.750000	-122.453072
15867.187500	-122.253250
15890.625000	-122.371231
15914.062500	-122.502525
15937.500000	-122.528442
15960.937500	-122.506973
15984.375000	-122.376297
16007.812500	-122.275124
16031.250000	-122.211899
16054.687500	-122.445251
16078.125000	-122.483337
16101.562500	-122.349358
16125.000000	-122.497864
16148.437500	-122.458443
16171.875000	-122.542793
16195.312500	-122.805923
16218.750000	-122.797127
16242.187500	-122.564339
16265.625000	-122.447197
16289.062500	-122.312065
16312.500000	-122.501396
16335.937500	-122.708366
16359.375000	-122.577568
16382.812500	-122.433502
16406.250000	-122.420525
16429.687500	-122.619766
16453.125000	-122.857964
16476.562500	-122.376923
16500.000000	-121.385925
16523.437500	-122.321930
16546.875000	-122.693619
16570.312500	-122.605438
16593.750000	-122.742348
16617.187500	-122.795700
16640.625000	-122.801659
16664.062500	-122.847313
16687.500000	-122.765633
16710.937500	-122.728394
16734.375000	-122.705093
16757.812500	-122.567879
16781.250000	-122.249046
16804.687500	-121.868362
16828.125000	-121.491585
16851.562500	-121.582542
16875.000000	-122.109039
16898.437500	-122.090370
16921.875000	-121.998665
16945.312500	-122.360092
16968.750000	-122.860367
16992.187500	-122.894005
17015.625000	-122.906998
17039.062500	-122.914734
17062.500000	-122.935234
17085.937500	-122.982010
17109.375000	-123.105354
17132.812500	-123.104317
17156.250000	-123.014320
17179.687500	-122.884369
17203.125000	-122.938362
17226.562500	-123.163902
17250.000000	-123.108475
17273.437500	-123.075577
17296.875000	-122.989189
17320.312500	-123.022644
17343.750000	-123.224915
17367.187500	-123.190712
17390.625000	-123.156731
17414.062500	-123.043808
17437.500000	-123.068863
17460.937500	-123.195198
17484.375000	-123.156647
17507.812500	-123.157356
17531.250000	-123.253258
17554.687500	-123.115417
17578.125000	-123.106400
17601.562500	-123.225578
17625.000000	-123.327797
17648.437500	-123.274002
17671.875000	-123.147095
17695.312500	-123.098366
17718.750000	-123.007904
17742.187500	-123.117142
17765.625000	-123.110046
17789.062500	-123.068710
17812.500000	-123.255608
17835.937500	-123.297935
17859.375000	-123.263733
17882.812500	-123.172058
17906.250000	-123.244881
17929.687500	-123.255447
17953.125000	-123.220833
17976.562500	-122.755363
18000.000000	-121.451073
18023.437500	-122.685211
18046.875000	-123.168900
18070.312500	-123.184418
18093.750000	-123.226761
18117.187500	-123.286324
18140.625000	-123.348389
18164.062500	-123.264114
18187.500000	-123.296028
18210.937500	-123.263351
18234.375000	-123.289299
18257.812500	-123.345230
18281.250000	-123.294434
18304.687500	-123.304848
18328.125000	-123.363777
18351.562500	-123.345444
18375.000000	-123.384727
18398.437500	-123.392105
18421.875000	-123.414818
18445.312500	-123.510803
18468.750000	-123.495049
18492.187500	-123.431015
18515.625000	-123.307762
18539.062500	-123.363144
18562.500000	-123.407181
18585.937500	-123.417107
18609.375000	-123.460556
18632.812500	-123.390182
18656.250000	-123.340096
