주파수 (Hz)	레벨 (dB)
23.437500	-100.957542
46.875000	-95.875504
70.312500	-81.614227
93.750000	-70.456345
117.187500	-63.805996
140.625000	-61.078751
164.062500	-61.784084
187.500000	-62.464695
210.937500	-63.063812
234.375000	-60.068436
257.812500	-59.023388
281.250000	-58.142921
304.687500	-54.715839
328.125000	-52.761208
351.562500	-56.251877
375.000000	-58.735340
398.437500	-61.189186
421.875000	-63.178158
445.312500	-60.548534
468.750000	-56.092129
492.187500	-58.216389
515.625000	-61.915169
539.062500	-57.870659
562.500000	-55.428341
585.937500	-62.974030
609.375000	-54.146561
632.812500	-52.129375
656.250000	-56.256237
679.687500	-59.931961
703.125000	-67.265846
726.562500	-59.442146
750.000000	-57.137341
773.437500	-65.059196
796.875000	-68.127884
820.312500	-56.987320
843.750000	-56.280506
867.187500	-67.201988
890.625000	-74.353058
914.062500	-72.660339
937.500000	-68.889565
960.937500	-67.741661
984.375000	-59.922043
1007.812500	-62.395634
1031.250000	-74.644470
1054.687500	-73.933441
1078.125000	-77.031921
1101.562500	-74.417091
1125.000000	-75.214264
1148.437500	-81.525986
1171.875000	-78.332863
1195.312500	-80.163620
1218.750000	-74.490440
1242.187500	-65.642426
1265.625000	-67.370171
1289.062500	-74.123466
1312.500000	-67.357880
1335.937500	-68.136749
1359.375000	-78.186729
1382.812500	-79.222137
1406.250000	-75.658607
1429.687500	-78.843513
1453.125000	-76.653183
1476.562500	-67.061180
1500.000000	-66.449905
1523.437500	-76.461998
1546.875000	-82.321037
1570.312500	-80.435249
1593.750000	-81.650246
1617.187500	-80.471489
1640.625000	-67.736389
1664.062500	-59.943604
1687.500000	-62.404366
1710.937500	-75.951019
1734.375000	-83.452698
1757.812500	-85.295570
1781.250000	-87.800423
1804.687500	-92.396584
1828.125000	-92.131752
1851.562500	-85.400604
1875.000000	-77.563393
1898.437500	-79.999138
1921.875000	-91.146332
1945.312500	-91.053535
1968.750000	-80.556015
1992.187500	-75.868462
2015.625000	-80.940506
2039.062500	-93.897064
2062.500000	-92.683609
2085.937500	-87.371735
2109.375000	-85.944580
2132.812500	-91.417755
2156.250000	-99.497444
2179.687500	-91.934082
2203.125000	-85.370743
2226.562500	-85.696838
2250.000000	-85.403641
2273.437500	-93.500969
2296.875000	-99.347656
2320.312500	-94.426956
2343.750000	-89.151550
2367.187500	-89.038124
2390.625000	-92.999847
2414.062500	-99.494263
2437.500000	-99.215302
2460.937500	-98.143997
2484.375000	-89.349045
2507.812500	-82.994011
2531.250000	-84.381714
2554.687500	-93.185921
2578.125000	-100.085304
2601.562500	-100.236183
2625.000000	-99.758171
2648.437500	-90.743462
2671.875000	-85.027649
2695.312500	-89.719788
2718.750000	-101.415588
2742.187500	-102.717842
2765.625000	-100.898117
2789.062500	-98.965927
2812.500000	-94.806404
2835.937500	-92.042046
2859.375000	-95.698097
2882.812500	-104.328262
2906.250000	-105.855392
2929.687500	-103.943321
2953.125000	-98.962036
2976.562500	-95.204102
3000.000000	-91.656708
3023.437500	-93.805824
3046.875000	-101.164719
3070.312500	-103.039589
3093.750000	-99.544266
3117.187500	-101.931366
3140.625000	-99.821205
3164.062500	-92.720093
3187.500000	-94.844826
3210.937500	-98.722511
3234.375000	-104.272202
3257.812500	-107.311073
3281.250000	-106.337234
3304.687500	-104.150406
3328.125000	-95.229027
3351.562500	-88.091316
3375.000000	-87.880089
3398.437500	-94.473740
3421.875000	-104.328644
3445.312500	-109.769096
3468.750000	-110.870956
3492.187500	-107.209465
3515.625000	-101.665115
3539.062500	-99.612328
3562.500000	-104.181732
3585.937500	-107.581253
3609.375000	-106.403435
3632.812500	-107.765038
3656.250000	-110.595627
3679.687500	-111.546242
3703.125000	-111.055130
3726.562500	-109.204865
3750.000000	-97.242882
3773.437500	-92.294212
3796.875000	-94.815338
3820.312500	-98.687378
3843.750000	-100.629974
3867.187500	-105.383743
3890.625000	-110.750404
3914.062500	-111.911186
3937.500000	-111.642532
3960.937500	-109.974876
3984.375000	-104.489006
4007.812500	-99.165222
4031.250000	-97.689697
4054.687500	-100.385170
4078.125000	-104.635216
4101.562500	-109.729141
4125.000000	-111.380318
4148.437500	-109.370590
4171.875000	-109.219284
4195.312500	-109.060997
4218.750000	-104.468628
4242.187500	-96.698112
4265.625000	-97.229111
4289.062500	-106.528435
4312.500000	-111.547501
4335.937500	-109.882942
4359.375000	-111.348251
4382.812500	-112.955231
4406.250000	-114.232079
4429.687500	-113.935257
4453.125000	-113.182655
4476.562500	-103.292206
4500.000000	-100.469109
4523.437500	-107.241989
4546.875000	-104.838799
4570.312500	-100.565514
4593.750000	-103.795425
4617.187500	-111.420250
4640.625000	-114.415871
4664.062500	-115.405983
4687.500000	-116.144157
4710.937500	-116.211662
4734.375000	-110.492027
4757.812500	-99.299484
4781.250000	-98.484802
4804.687500	-105.549324
4828.125000	-113.806900
4851.562500	-115.678589
4875.000000	-115.914680
4898.437500	-115.992912
4921.875000	-116.071617
4945.312500	-116.229050
4968.750000	-116.226936
4992.187500	-115.840897
5015.625000	-115.009239
5039.062500	-114.308220
5062.500000	-107.598701
5085.937500	-103.243134
5109.375000	-103.637283
5132.812500	-103.647720
5156.250000	-104.215050
5179.687500	-107.035561
5203.125000	-113.291870
5226.562500	-116.825768
5250.000000	-117.642738
5273.437500	-117.577835
5296.875000	-117.480064
5320.312500	-117.777252
5343.750000	-117.690392
5367.187500	-115.332787
5390.625000	-106.780327
5414.062500	-106.857002
5437.500000	-114.944740
5460.937500	-115.702003
5484.375000	-111.960625
5507.812500	-113.431175
5531.250000	-116.410385
5554.687500	-116.696762
5578.125000	-117.523186
5601.562500	-117.512932
5625.000000	-117.677513
5648.437500	-117.896477
5671.875000	-117.903542
5695.312500	-117.124596
5718.750000	-116.955353
5742.187500	-117.498413
5765.625000	-116.927101
5789.062500	-117.012993
5812.500000	-116.788826
5835.937500	-116.805336
5859.375000	-117.742073
5882.812500	-117.197708
5906.250000	-116.929977
5929.687500	-118.018723
5953.125000	-118.434624
5976.562500	-117.986198
6000.000000	-117.371559
6023.437500	-117.630562
6046.875000	-116.588066
6070.312500	-113.568283
6093.750000	-110.918457
6117.187500	-114.092178
6140.625000	-117.121613
6164.062500	-114.023735
6187.500000	-113.268265
6210.937500	-113.096367
6234.375000	-111.984108
6257.812500	-115.076584
6281.250000	-115.466728
6304.687500	-115.960159
6328.125000	-117.699387
6351.562500	-117.981628
6375.000000	-117.736458
6398.437500	-117.934967
6421.875000	-118.092216
6445.312500	-118.120110
6468.750000	-117.592232
6492.187500	-116.664749
6515.625000	-116.926071
6539.062500	-117.676544
6562.500000	-118.081879
6585.937500	-117.930756
6609.375000	-117.992195
6632.812500	-117.920052
6656.250000	-117.690193
6679.687500	-117.519157
6703.125000	-117.732040
6726.562500	-118.183151
6750.000000	-118.368446
6773.437500	-117.754501
6796.875000	-117.765633
6820.312500	-118.054024
6843.750000	-118.069756
6867.187500	-117.914459
6890.625000	-117.015297
6914.062500	-116.485153
6937.500000	-116.670166
6960.937500	-117.693359
6984.375000	-116.173912
7007.812500	-113.438385
7031.250000	-113.242409
7054.687500	-115.775566
7078.125000	-113.953407
7101.562500	-115.020409
7125.000000	-117.370125
7148.437500	-117.382820
7171.875000	-117.738945
7195.312500	-117.383209
7218.750000	-117.174187
7242.187500	-117.682526
7265.625000	-117.512718
7289.062500	-115.111137
7312.500000	-114.397751
7335.937500	-115.650101
7359.375000	-117.825127
7382.812500	-117.916451
7406.250000	-117.636009
7429.687500	-117.873810
7453.125000	-118.197845
7476.562500	-118.155632
7500.000000	-117.581886
7523.437500	-117.780014
7546.875000	-118.483955
7570.312500	-118.333191
7593.750000	-118.190468
7617.187500	-117.915039
7640.625000	-118.085121
7664.062500	-118.375305
7687.500000	-118.385025
7710.937500	-118.266449
7734.375000	-118.388557
7757.812500	-118.404213
7781.250000	-118.131340
7804.687500	-117.922577
7828.125000	-118.242439
7851.562500	-117.987511
7875.000000	-117.021309
7898.437500	-117.641113
7921.875000	-117.825569
7945.312500	-117.031967
7968.750000	-116.219475
7992.187500	-115.219124
8015.625000	-115.863457
8039.062500	-117.950531
8062.500000	-117.960625
8085.937500	-118.208717
8109.375000	-118.481697
8132.812500	-118.485519
8156.250000	-118.542336
8179.687500	-118.810234
8203.125000	-118.796188
8226.562500	-118.682098
8250.000000	-118.745270
8273.437500	-118.604805
8296.875000	-118.462128
8320.312500	-118.600540
8343.750000	-118.619896
8367.187500	-118.277008
8390.625000	-117.692917
8414.062500	-116.931740
8437.500000	-116.442528
8460.937500	-116.341850
8484.375000	-116.630081
8507.812500	-117.860115
8531.250000	-118.873779
8554.687500	-118.883789
8578.125000	-118.752281
8601.562500	-118.685898
8625.000000	-118.927162
8648.437500	-119.008247
8671.875000	-119.059959
8695.312500	-118.952507
8718.750000	-118.892494
8742.187500	-119.079765
8765.625000	-119.202614
8789.062500	-119.089722
8812.500000	-119.271126
8835.937500	-119.374954
8859.375000	-119.121857
8882.812500	-118.874268
8906.250000	-118.954979
8929.687500	-118.957458
8953.125000	-118.993790
8976.562500	-117.901352
9000.000000	-115.875153
9023.437500	-117.730148
9046.875000	-119.148293
9070.312500	-119.147667
9093.750000	-118.684685
9117.187500	-118.450485
9140.625000	-119.221275
9164.062500	-119.343277
9187.500000	-119.426064
9210.937500	-119.709869
9234.375000	-119.701271
9257.812500	-119.476135
9281.250000	-119.195351
9304.687500	-119.175667
9328.125000	-119.559753
9351.562500	-119.770226
9375.000000	-119.678116
9398.437500	-119.616463
9421.875000	-119.521858
9445.312500	-119.614990
9468.750000	-119.528465
9492.187500	-119.481590
9515.625000	-119.740929
9539.062500	-119.950066
9562.500000	-119.983070
9585.937500	-119.894020
9609.375000	-119.801048
9632.812500	-119.676285
9656.250000	-119.575317
9679.687500	-118.581787
9703.125000	-118.151733
9726.562500	-119.234665
9750.000000	-119.249451
9773.437500	-119.904091
9796.875000	-120.092941
9820.312500	-120.070999
9843.750000	-120.066101
9867.187500	-120.137955
9890.625000	-120.189957
9914.062500	-120.056404
9937.500000	-119.955360
9960.937500	-119.996429
9984.375000	-120.061951
10007.812500	-120.024155
10031.250000	-120.068695
10054.687500	-120.092651
10078.125000	-120.140724
10101.562500	-120.243790
10125.000000	-120.375771
10148.437500	-120.250526
10171.875000	-120.200012
10195.312500	-120.282951
10218.750000	-120.348137
10242.187500	-120.385284
10265.625000	-120.283234
10289.062500	-120.289413
10312.500000	-120.295532
10335.937500	-120.251404
10359.375000	-120.310677
10382.812500	-120.327599
10406.250000	-120.387733
10429.687500	-120.371277
10453.125000	-120.442245
10476.562500	-118.399483
10500.000000	-115.108864
10523.437500	-118.336273
10546.875000	-120.501587
10570.312500	-120.489624
10593.750000	-120.504623
10617.187500	-120.539459
10640.625000	-120.639671
10664.062500	-120.702850
10687.500000	-120.724426
10710.937500	-120.698174
10734.375000	-120.675217
10757.812500	-120.602463
10781.250000	-120.567009
10804.687500	-120.706726
10828.125000	-120.718292
10851.562500	-120.718002
10875.000000	-120.792747
10898.437500	-120.660126
10921.875000	-120.489937
10945.312500	-120.543205
10968.750000	-120.636917
10992.187500	-120.620003
11015.625000	-120.724655
11039.062500	-120.705643
11062.500000	-120.763428
11085.937500	-120.751404
11109.375000	-120.693413
11132.812500	-120.805099
11156.250000	-120.902100
11179.687500	-120.830978
11203.125000	-120.827354
11226.562500	-120.815697
11250.000000	-120.753754
11273.437500	-120.887909
11296.875000	-120.981369
11320.312500	-120.875992
11343.750000	-120.906128
11367.187500	-120.841072
11390.625000	-120.839241
11414.062500	-120.871956
11437.500000	-120.928566
11460.937500	-120.910912
11484.375000	-121.004364
11507.812500	-120.919373
11531.250000	-120.963898
11554.687500	-120.862984
11578.125000	-120.915459
11601.562500	-121.015274
11625.000000	-120.882843
11648.437500	-120.798996
11671.875000	-120.878799
11695.312500	-120.833183
11718.750000	-120.531601
11742.187500	-120.236610
11765.625000	-119.827660
11789.062500	-119.777603
11812.500000	-119.952553
11835.937500	-120.403648
11859.375000	-120.683105
11882.812500	-120.845695
11906.250000	-121.041710
11929.687500	-121.030136
11953.125000	-121.017174
11976.562500	-118.964668
12000.000000	-115.744041
12023.437500	-118.981750
12046.875000	-120.908043
12070.312500	-120.910454
12093.750000	-121.055084
12117.187500	-121.149124
12140.625000	-121.234406
12164.062500	-121.284073
12187.500000	-121.147530
12210.937500	-121.154099
12234.375000	-121.233063
12257.812500	-121.147606
12281.250000	-121.164734
12304.687500	-121.201935
12328.125000	-121.188713
12351.562500	-121.126022
12375.000000	-121.208855
12398.437500	-121.296272
12421.875000	-121.345474
12445.312500	-121.304070
12468.750000	-121.334412
12492.187500	-121.328972
12515.625000	-121.401909
12539.062500	-121.300682
12562.500000	-121.074638
12585.937500	-120.530380
12609.375000	-119.537666
12632.812500	-119.148491
12656.250000	-119.455597
12679.687500	-120.048767
12703.125000	-120.333916
12726.562500	-120.581886
12750.000000	-121.156807
12773.437500	-121.327637
12796.875000	-121.156570
12820.312500	-121.344940
12843.750000	-121.615944
12867.187500	-121.582298
12890.625000	-121.421021
12914.062500	-121.400742
12937.500000	-121.415154
12960.937500	-121.370506
12984.375000	-121.527939
13007.812500	-121.642677
13031.250000	-121.645821
13054.687500	-121.549156
13078.125000	-121.635071
13101.562500	-121.741058
13125.000000	-121.672295
13148.437500	-121.610596
13171.875000	-121.490860
13195.312500	-121.540550
13218.750000	-121.737053
13242.187500	-121.755653
13265.625000	-121.834198
13289.062500	-121.785835
13312.500000	-121.790695
13335.937500	-121.908508
13359.375000	-121.988762
13382.812500	-121.766975
13406.250000	-121.798950
13429.687500	-121.918419
13453.125000	-121.899879
13476.562500	-120.460884
13500.000000	-117.948456
13523.437500	-120.518661
13546.875000	-121.986427
13570.312500	-121.929207
13593.750000	-121.892372
13617.187500	-121.968254
13640.625000	-122.023827
13664.062500	-121.992775
13687.500000	-121.980118
13710.937500	-121.935860
13734.375000	-121.839302
13757.812500	-121.945641
13781.250000	-122.034729
13804.687500	-122.020027
13828.125000	-122.006126
13851.562500	-121.962494
13875.000000	-122.050240
13898.437500	-122.001083
13921.875000	-122.015144
13945.312500	-121.972183
13968.750000	-121.985817
13992.187500	-122.088699
14015.625000	-122.227890
14039.062500	-122.216484
14062.500000	-122.186821
14085.937500	-122.180412
14109.375000	-121.970421
14132.812500	-122.194496
14156.250000	-122.286873
14179.687500	-122.302872
14203.125000	-122.263168
14226.562500	-122.255157
14250.000000	-122.285439
14273.437500	-122.411446
14296.875000	-122.340576
14320.312500	-122.311508
14343.750000	-122.315849
14367.187500	-122.264915
14390.625000	-122.356247
14414.062500	-122.350052
14437.500000	-122.363960
14460.937500	-122.391525
14484.375000	-122.369247
14507.812500	-122.342484
14531.250000	-122.408844
14554.687500	-122.385765
14578.125000	-122.410942
14601.562500	-122.541298
14625.000000	-122.457108
14648.437500	-122.433037
14671.875000	-122.560814
14695.312500	-122.397873
14718.750000	-122.410355
14742.187500	-122.535049
14765.625000	-122.523712
14789.062500	-122.411896
14812.500000	-122.409622
14835.937500	-122.608986
14859.375000	-122.596680
14882.812500	-122.486786
14906.250000	-122.515236
14929.687500	-122.607491
14953.125000	-122.495888
14976.562500	-121.942299
15000.000000	-120.699028
15023.437500	-122.164604
15046.875000	-122.620735
15070.312500	-122.584236
15093.750000	-122.634720
15117.187500	-122.644463
15140.625000	-122.700294
15164.062500	-122.697739
15187.500000	-122.615463
15210.937500	-122.609810
15234.375000	-122.695053
15257.812500	-122.672211
15281.250000	-122.703476
15304.687500	-122.592964
15328.125000	-122.684166
15351.562500	-122.874374
15375.000000	-122.844368
15398.437500	-122.733498
15421.875000	-122.827797
15445.312500	-122.796799
15468.750000	-122.720131
15492.187500	-122.688522
15515.625000	-122.732254
15539.062500	-122.811363
15562.500000	-122.900566
15585.937500	-122.891365
15609.375000	-122.840942
15632.812500	-122.897026
15656.250000	-122.851410
15679.687500	-122.882896
15703.125000	-122.891937
15726.562500	-122.791161
15750.000000	-122.539215
15773.437500	-122.600533
15796.875000	-122.889145
15820.312500	-122.830513
15843.750000	-122.872345
15867.187500	-122.835289
15890.625000	-122.892632
15914.062500	-122.809303
15937.500000	-122.835884
15960.937500	-122.890762
15984.375000	-122.866508
16007.812500	-122.968513
16031.250000	-122.858376
16054.687500	-122.867363
16078.125000	-122.899002
16101.562500	-122.957062
16125.000000	-122.971107
16148.437500	-122.998230
16171.875000	-123.033142
16195.312500	-123.063477
16218.750000	-123.006981
16242.187500	-122.959305
16265.625000	-123.021263
16289.062500	-123.045357
16312.500000	-123.026550
16335.937500	-123.085541
16359.375000	-122.976318
16382.812500	-122.980057
16406.250000	-122.957497
16429.687500	-122.981110
16453.125000	-123.147514
16476.562500	-122.718010
16500.000000	-121.671127
16523.437500	-122.513283
16546.875000	-122.962715
16570.312500	-123.039345
16593.750000	-123.107887
16617.187500	-123.101006
16640.625000	-123.062134
16664.062500	-123.103325
16687.500000	-123.127335
16710.937500	-123.100189
16734.375000	-123.100189
16757.812500	-122.981827
16781.250000	-122.749565
16804.687500	-122.215210
16828.125000	-121.769432
16851.562500	-121.763596
16875.000000	-122.160706
16898.437500	-122.365074
16921.875000	-122.426079
16945.312500	-122.678558
16968.750000	-123.020012
16992.187500	-123.174507
17015.625000	-123.213440
17039.062500	-123.206985
17062.500000	-123.146454
17085.937500	-123.204002
17109.375000	-123.253601
17132.812500	-123.307434
17156.250000	-123.291946
17179.687500	-123.350739
17203.125000	-123.258347
17226.562500	-123.307251
17250.000000	-123.346191
17273.437500	-123.334709
17296.875000	-123.331177
17320.312500	-123.336411
17343.750000	-123.338066
17367.187500	-123.399284
17390.625000	-123.453476
17414.062500	-123.339767
17437.500000	-123.273315
17460.937500	-123.306046
17484.375000	-123.395218
17507.812500	-123.364922
17531.250000	-123.287361
17554.687500	-123.316101
17578.125000	-123.348251
17601.562500	-123.379372
17625.000000	-123.347038
17648.437500	-123.424072
17671.875000	-123.405907
17695.312500	-123.452843
17718.750000	-123.378876
17742.187500	-123.283051
17765.625000	-123.274704
17789.062500	-123.422104
17812.500000	-123.496796
17835.937500	-123.469551
17859.375000	-123.568436
17882.812500	-123.447083
17906.250000	-123.402016
17929.687500	-123.498909
17953.125000	-123.481049
17976.562500	-122.917419
18000.000000	-121.577751
18023.437500	-122.865845
18046.875000	-123.387703
18070.312500	-123.360542
18093.750000	-123.360680
18117.187500	-123.422104
18140.625000	-123.449142
18164.062500	-123.516808
18187.500000	-123.585922
18210.937500	-123.505775
18234.375000	-123.554710
18257.812500	-123.520164
18281.250000	-123.505028
18304.687500	-123.537239
18328.125000	-123.472206
18351.562500	-123.497055
18375.000000	-123.518044
18398.437500	-123.490334
18421.875000	-123.453491
18445.312500	-123.462372
18468.750000	-123.457954
18492.187500	-123.461746
18515.625000	-123.553352
18539.062500	-123.479446
18562.500000	-123.412178
