주파수 (Hz)	레벨 (dB)
23.437500	-97.378128
46.875000	-87.485588
70.312500	-72.926552
93.750000	-64.770920
117.187500	-59.444389
140.625000	-57.646149
164.062500	-59.720417
187.500000	-58.183659
210.937500	-57.212948
234.375000	-54.913128
257.812500	-57.204529
281.250000	-56.176441
304.687500	-54.918995
328.125000	-56.483173
351.562500	-55.218819
375.000000	-56.488033
398.437500	-57.188465
421.875000	-58.803337
445.312500	-54.134491
468.750000	-52.905304
492.187500	-58.121014
515.625000	-58.062042
539.062500	-57.173367
562.500000	-56.569511
585.937500	-52.861633
609.375000	-51.976086
632.812500	-51.786057
656.250000	-61.405609
679.687500	-57.565151
703.125000	-52.615963
726.562500	-56.541836
750.000000	-57.403625
773.437500	-54.912121
796.875000	-54.709953
820.312500	-65.283096
843.750000	-69.865585
867.187500	-65.638176
890.625000	-63.818138
914.062500	-67.403412
937.500000	-65.170029
960.937500	-70.558258
984.375000	-71.840996
1007.812500	-72.524872
1031.250000	-70.279785
1054.687500	-70.149765
1078.125000	-75.240448
1101.562500	-73.714165
1125.000000	-75.871719
1148.437500	-79.131592
1171.875000	-69.862831
1195.312500	-70.551712
1218.750000	-78.065140
1242.187500	-70.954910
1265.625000	-71.406952
1289.062500	-78.853569
1312.500000	-77.838234
1335.937500	-77.868690
1359.375000	-81.106262
1382.812500	-70.388412
1406.250000	-65.992920
1429.687500	-71.914490
1453.125000	-81.946686
1476.562500	-75.794502
1500.000000	-75.134949
1523.437500	-81.813408
1546.875000	-71.228302
1570.312500	-63.361317
1593.750000	-64.502808
1617.187500	-75.491280
1640.625000	-80.500870
1664.062500	-80.997421
1687.500000	-84.444252
1710.937500	-87.831383
1734.375000	-84.021011
1757.812500	-74.050247
1781.250000	-70.963600
1804.687500	-78.406296
1828.125000	-85.747665
1851.562500	-80.188339
1875.000000	-73.377548
1898.437500	-77.034050
1921.875000	-89.318542
1945.312500	-91.990562
1968.750000	-88.398170
1992.187500	-84.995567
2015.625000	-90.195312
2039.062500	-95.352547
2062.500000	-93.020126
2085.937500	-87.369629
2109.375000	-81.047913
2132.812500	-83.393715
2156.250000	-95.321785
2179.687500	-96.658623
2203.125000	-89.936134
2226.562500	-83.522362
2250.000000	-83.639168
2273.437500	-92.587440
2296.875000	-97.015457
2320.312500	-94.609047
2343.750000	-84.680351
2367.187500	-76.906357
2390.625000	-77.551300
2414.062500	-88.450134
2437.500000	-95.707191
2460.937500	-97.918968
2484.375000	-93.798096
2507.812500	-85.953926
2531.250000	-84.770332
2554.687500	-93.032021
2578.125000	-99.270790
2601.562500	-100.309639
2625.000000	-97.080368
2648.437500	-87.449402
2671.875000	-83.577682
2695.312500	-87.981750
2718.750000	-97.628868
2742.187500	-99.401787
2765.625000	-98.269676
2789.062500	-93.956642
2812.500000	-85.416313
2835.937500	-81.980278
2859.375000	-88.025566
2882.812500	-99.645767
2906.250000	-101.375801
2929.687500	-102.124031
2953.125000	-99.415939
2976.562500	-92.226562
3000.000000	-90.186813
3023.437500	-94.059570
3046.875000	-99.159309
3070.312500	-98.016220
3093.750000	-96.807594
3117.187500	-96.559792
3140.625000	-89.689880
3164.062500	-80.650513
3187.500000	-78.972496
3210.937500	-85.649849
3234.375000	-99.379112
3257.812500	-102.124809
3281.250000	-104.360069
3304.687500	-104.809319
3328.125000	-97.800659
3351.562500	-98.789825
3375.000000	-103.885902
3398.437500	-100.624664
3421.875000	-103.758896
3445.312500	-108.759666
3468.750000	-109.164330
3492.187500	-105.014664
3515.625000	-102.543877
3539.062500	-96.542206
3562.500000	-90.560570
3585.937500	-88.730133
3609.375000	-88.817322
3632.812500	-94.661980
3656.250000	-105.031853
3679.687500	-106.824638
3703.125000	-108.617416
3726.562500	-106.393738
3750.000000	-92.776970
3773.437500	-88.591438
3796.875000	-89.627159
3820.312500	-91.522476
3843.750000	-96.657623
3867.187500	-105.554199
3890.625000	-109.324821
3914.062500	-109.843163
3937.500000	-105.918571
3960.937500	-102.988846
3984.375000	-89.715675
4007.812500	-84.740555
4031.250000	-89.762772
4054.687500	-103.774605
4078.125000	-105.651344
4101.562500	-108.657898
4125.000000	-108.945869
4148.437500	-108.831551
4171.875000	-109.196465
4195.312500	-106.981941
4218.750000	-99.231247
4242.187500	-95.662750
4265.625000	-101.651131
4289.062500	-99.695854
4312.500000	-96.433548
4335.937500	-100.836189
4359.375000	-107.749794
4382.812500	-110.489120
4406.250000	-111.154015
4429.687500	-107.882912
4453.125000	-105.077621
4476.562500	-97.104195
4500.000000	-93.624443
4523.437500	-95.772156
4546.875000	-99.030724
4570.312500	-97.138420
4593.750000	-101.146812
4617.187500	-109.517776
4640.625000	-111.857841
4664.062500	-113.360985
4687.500000	-113.424980
4710.937500	-113.455116
4734.375000	-112.933853
4757.812500	-107.125046
4781.250000	-97.971909
4804.687500	-95.674522
4828.125000	-93.350677
4851.562500	-93.599525
4875.000000	-98.953506
4898.437500	-106.163734
4921.875000	-113.105568
4945.312500	-114.198036
4968.750000	-113.619751
4992.187500	-113.538681
5015.625000	-113.274017
5039.062500	-107.319733
5062.500000	-102.884308
5085.937500	-106.376472
5109.375000	-112.955330
5132.812500	-112.606026
5156.250000	-102.511894
5179.687500	-101.364998
5203.125000	-110.145348
5226.562500	-114.630119
5250.000000	-114.459610
5273.437500	-114.321663
5296.875000	-114.961311
5320.312500	-115.720467
5343.750000	-116.250755
5367.187500	-112.113480
5390.625000	-102.279182
5414.062500	-102.422340
5437.500000	-110.396309
5460.937500	-110.412178
5484.375000	-110.072189
5507.812500	-112.197159
5531.250000	-111.692276
5554.687500	-108.318848
5578.125000	-111.551308
5601.562500	-115.845146
5625.000000	-115.379128
5648.437500	-115.692154
5671.875000	-115.524414
5695.312500	-107.259193
5718.750000	-100.199654
5742.187500	-96.626976
5765.625000	-101.401871
5789.062500	-109.497116
5812.500000	-105.368500
5835.937500	-101.306679
5859.375000	-104.842606
5882.812500	-112.070198
5906.250000	-112.291664
5929.687500	-115.431831
5953.125000	-117.218719
5976.562500	-116.713791
6000.000000	-116.161438
6023.437500	-117.076393
6046.875000	-117.258621
6070.312500	-117.258125
6093.750000	-117.607513
6117.187500	-117.431259
6140.625000	-117.127846
6164.062500	-117.174004
6187.500000	-116.628555
6210.937500	-111.360794
6234.375000	-108.483353
6257.812500	-113.146233
6281.250000	-117.086746
6304.687500	-116.727760
6328.125000	-116.968498
6351.562500	-117.006454
6375.000000	-116.979485
6398.437500	-116.558716
6421.875000	-116.343323
6445.312500	-113.259346
6468.750000	-110.591042
6492.187500	-108.308464
6515.625000	-108.587128
6539.062500	-110.824150
6562.500000	-106.626541
6585.937500	-102.306595
6609.375000	-104.853806
6632.812500	-109.564827
6656.250000	-113.083717
6679.687500	-113.182304
6703.125000	-115.344559
6726.562500	-115.611649
6750.000000	-114.295876
6773.437500	-115.086288
6796.875000	-117.038513
6820.312500	-117.529884
6843.750000	-117.115677
6867.187500	-115.095406
6890.625000	-110.034149
6914.062500	-110.138817
6937.500000	-114.357933
6960.937500	-116.379288
6984.375000	-116.515144
7007.812500	-116.566895
7031.250000	-116.666626
7054.687500	-115.863762
7078.125000	-111.851730
7101.562500	-112.578682
7125.000000	-116.374489
7148.437500	-117.088318
7171.875000	-117.163315
7195.312500	-116.354774
7218.750000	-116.449333
7242.187500	-116.927734
7265.625000	-117.016068
7289.062500	-116.721237
7312.500000	-116.425461
7335.937500	-116.596375
7359.375000	-117.023224
7382.812500	-116.958824
7406.250000	-116.243546
7429.687500	-115.158775
7453.125000	-113.077583
7476.562500	-105.697853
7500.000000	-99.471809
7523.437500	-101.508659
7546.875000	-110.833794
7570.312500	-115.843033
7593.750000	-116.397987
7617.187500	-116.380539
7640.625000	-116.962341
7664.062500	-117.490303
7687.500000	-117.654724
7710.937500	-117.780205
7734.375000	-117.889305
7757.812500	-117.950493
7781.250000	-117.552719
7804.687500	-116.883942
7828.125000	-116.556618
7851.562500	-116.401222
7875.000000	-117.067245
7898.437500	-117.363991
7921.875000	-116.810013
7945.312500	-113.015144
7968.750000	-108.507088
7992.187500	-110.877876
8015.625000	-115.324532
8039.062500	-115.515297
8062.500000	-115.602997
8085.937500	-116.704651
8109.375000	-117.306442
8132.812500	-117.188774
8156.250000	-117.646637
8179.687500	-118.064865
8203.125000	-117.674065
8226.562500	-117.841873
8250.000000	-118.056259
8273.437500	-117.109200
8296.875000	-117.041695
8320.312500	-116.703979
8343.750000	-116.464439
8367.187500	-116.687889
8390.625000	-116.343216
8414.062500	-113.151390
8437.500000	-110.507072
8460.937500	-110.277359
8484.375000	-113.805504
8507.812500	-117.730682
8531.250000	-118.002663
8554.687500	-116.944649
8578.125000	-117.369247
8601.562500	-117.874733
8625.000000	-118.164185
8648.437500	-118.338028
8671.875000	-118.452080
8695.312500	-118.701515
8718.750000	-118.700912
8742.187500	-118.774948
8765.625000	-119.083443
8789.062500	-118.978241
8812.500000	-119.090813
8835.937500	-119.059677
8859.375000	-118.777214
8882.812500	-118.373047
8906.250000	-118.334877
8929.687500	-118.663681
8953.125000	-118.787506
8976.562500	-117.515358
9000.000000	-115.732269
9023.437500	-117.678459
9046.875000	-118.064636
9070.312500	-116.519516
9093.750000	-112.938194
9117.187500	-110.874733
9140.625000	-114.076210
9164.062500	-117.869492
9187.500000	-118.981377
9210.937500	-119.591476
9234.375000	-119.423134
9257.812500	-119.184143
9281.250000	-118.692200
9304.687500	-118.525635
9328.125000	-118.710770
9351.562500	-118.968826
9375.000000	-118.877457
9398.437500	-116.820702
9421.875000	-116.577904
9445.312500	-118.731331
9468.750000	-119.046425
9492.187500	-119.184738
9515.625000	-119.505447
9539.062500	-119.723854
9562.500000	-119.672050
9585.937500	-119.483185
9609.375000	-119.253883
9632.812500	-118.831398
9656.250000	-118.491096
9679.687500	-118.818565
9703.125000	-118.503113
9726.562500	-118.997818
9750.000000	-119.576225
9773.437500	-119.707932
9796.875000	-119.849289
9820.312500	-119.950294
9843.750000	-119.696663
9867.187500	-119.309464
9890.625000	-119.692421
9914.062500	-119.901619
9937.500000	-119.734810
9960.937500	-119.743759
9984.375000	-119.809723
10007.812500	-119.999847
10031.250000	-120.211128
10054.687500	-120.102699
10078.125000	-120.002106
10101.562500	-120.172173
10125.000000	-120.189217
10148.437500	-119.944077
10171.875000	-119.701767
10195.312500	-119.869125
10218.750000	-119.712715
10242.187500	-118.834930
10265.625000	-117.708069
10289.062500	-118.183792
10312.500000	-118.875832
10335.937500	-119.819824
10359.375000	-120.111122
10382.812500	-120.155174
10406.250000	-120.088326
10429.687500	-119.666534
10453.125000	-119.471252
10476.562500	-118.258904
10500.000000	-115.072609
10523.437500	-118.339027
10546.875000	-120.166893
10570.312500	-120.199356
10593.750000	-120.211967
10617.187500	-120.451080
10640.625000	-120.564560
10664.062500	-120.515739
10687.500000	-120.606102
10710.937500	-120.681953
10734.375000	-120.572586
10757.812500	-120.551445
10781.250000	-120.545906
10804.687500	-120.631065
10828.125000	-120.626747
10851.562500	-120.698425
10875.000000	-120.738220
10898.437500	-120.742546
10921.875000	-120.693901
10945.312500	-120.630974
10968.750000	-120.768776
10992.187500	-120.718033
11015.625000	-120.731705
11039.062500	-120.690681
11062.500000	-120.660263
11085.937500	-120.689758
11109.375000	-120.781654
11132.812500	-120.796394
11156.250000	-120.728058
11179.687500	-120.706383
11203.125000	-120.775879
11226.562500	-120.785072
11250.000000	-120.749207
11273.437500	-120.770897
11296.875000	-120.687698
11320.312500	-120.591789
11343.750000	-120.536285
11367.187500	-120.575760
11390.625000	-120.608231
11414.062500	-120.666176
11437.500000	-120.671417
11460.937500	-120.737770
11484.375000	-120.822464
11507.812500	-120.750511
11531.250000	-120.645645
11554.687500	-120.646759
11578.125000	-120.569923
11601.562500	-120.862785
11625.000000	-120.781868
11648.437500	-120.684700
11671.875000	-120.772202
11695.312500	-120.658127
11718.750000	-120.242393
11742.187500	-119.892784
11765.625000	-119.790977
11789.062500	-119.941055
11812.500000	-120.083221
11835.937500	-120.455711
11859.375000	-120.680847
11882.812500	-120.776077
11906.250000	-120.938377
11929.687500	-121.105377
11953.125000	-120.980530
11976.562500	-119.031311
12000.000000	-115.790176
12023.437500	-118.916313
12046.875000	-120.811539
12070.312500	-120.954720
12093.750000	-121.101364
12117.187500	-121.064209
12140.625000	-121.035126
12164.062500	-121.044586
12187.500000	-121.128098
12210.937500	-121.230278
12234.375000	-121.212296
12257.812500	-121.122940
12281.250000	-121.130653
12304.687500	-121.086411
12328.125000	-121.100533
12351.562500	-121.184723
12375.000000	-121.198807
12398.437500	-121.210228
12421.875000	-121.146736
12445.312500	-121.138054
12468.750000	-121.177818
12492.187500	-121.293030
12515.625000	-121.230026
12539.062500	-121.054916
12562.500000	-120.580589
12585.937500	-120.226219
12609.375000	-119.451866
12632.812500	-118.970329
12656.250000	-119.319351
12679.687500	-119.856789
12703.125000	-120.096733
12726.562500	-120.513229
12750.000000	-121.083466
12773.437500	-121.238846
12796.875000	-121.164337
12820.312500	-121.270683
12843.750000	-121.445976
12867.187500	-121.386787
12890.625000	-121.395744
12914.062500	-121.322830
12937.500000	-121.252121
12960.937500	-121.304329
12984.375000	-121.333832
13007.812500	-121.479614
13031.250000	-121.683464
13054.687500	-121.712357
13078.125000	-121.617989
13101.562500	-121.574287
13125.000000	-121.548203
13148.437500	-121.523575
13171.875000	-121.442558
13195.312500	-121.467514
13218.750000	-121.540115
13242.187500	-121.686127
13265.625000	-121.745911
13289.062500	-121.781670
13312.500000	-121.806824
13335.937500	-121.873955
13359.375000	-121.778534
13382.812500	-121.621452
13406.250000	-121.707947
13429.687500	-121.849075
13453.125000	-121.877022
13476.562500	-120.455200
13500.000000	-117.977425
13523.437500	-120.506927
13546.875000	-121.768089
13570.312500	-121.721550
13593.750000	-121.836449
13617.187500	-121.924614
13640.625000	-121.970779
13664.062500	-121.713898
13687.500000	-121.699455
13710.937500	-121.834778
13734.375000	-121.803520
13757.812500	-121.799370
13781.250000	-121.959251
13804.687500	-121.839653
13828.125000	-121.795959
13851.562500	-121.803268
13875.000000	-122.003136
13898.437500	-121.990257
13921.875000	-122.112396
13945.312500	-121.966316
13968.750000	-121.811691
13992.187500	-121.859016
14015.625000	-122.027687
14039.062500	-122.145027
14062.500000	-122.117851
14085.937500	-122.037636
14109.375000	-121.741493
14132.812500	-121.903610
14156.250000	-122.009460
14179.687500	-122.090645
14203.125000	-122.185974
14226.562500	-122.190498
14250.000000	-122.064789
14273.437500	-122.162285
14296.875000	-122.296463
14320.312500	-122.229591
14343.750000	-122.180183
14367.187500	-122.061165
14390.625000	-122.084724
14414.062500	-122.222336
14437.500000	-122.102257
14460.937500	-122.212868
14484.375000	-122.370651
14507.812500	-122.420792
14531.250000	-122.346207
14554.687500	-122.291794
14578.125000	-122.383423
14601.562500	-122.471756
14625.000000	-122.292404
14648.437500	-122.235268
14671.875000	-122.371994
14695.312500	-122.380096
14718.750000	-122.337349
14742.187500	-122.384476
14765.625000	-122.366745
14789.062500	-122.320663
14812.500000	-122.204971
14835.937500	-122.324379
14859.375000	-122.318001
14882.812500	-122.342880
14906.250000	-122.422905
14929.687500	-122.410744
14953.125000	-122.415237
14976.562500	-121.842255
15000.000000	-120.494698
15023.437500	-121.943153
15046.875000	-122.509750
15070.312500	-122.514030
15093.750000	-122.410751
15117.187500	-122.484077
15140.625000	-122.597763
15164.062500	-122.572800
15187.500000	-122.588699
15210.937500	-122.452141
15234.375000	-122.511246
15257.812500	-122.641701
15281.250000	-122.645103
15304.687500	-122.630013
15328.125000	-122.700966
15351.562500	-122.778931
15375.000000	-122.764000
15398.437500	-122.659180
15421.875000	-122.704453
15445.312500	-122.621185
15468.750000	-122.484108
15492.187500	-122.523689
15515.625000	-122.625870
15539.062500	-122.732590
15562.500000	-122.779030
15585.937500	-122.765656
15609.375000	-122.681679
15632.812500	-122.761452
15656.250000	-122.796379
15679.687500	-122.880821
15703.125000	-122.919495
15726.562500	-122.786156
15750.000000	-122.365471
15773.437500	-122.306900
15796.875000	-122.777298
15820.312500	-122.832245
15843.750000	-122.795746
15867.187500	-122.769867
15890.625000	-122.873978
15914.062500	-122.904968
15937.500000	-122.864578
15960.937500	-122.899849
15984.375000	-122.887100
16007.812500	-122.768806
16031.250000	-122.808922
16054.687500	-122.919762
16078.125000	-122.930428
16101.562500	-122.953896
16125.000000	-122.977600
16148.437500	-123.026833
16171.875000	-122.953644
16195.312500	-123.081940
16218.750000	-123.103386
16242.187500	-123.049004
16265.625000	-122.988518
16289.062500	-122.964897
16312.500000	-122.908646
16335.937500	-122.944283
16359.375000	-122.992493
16382.812500	-122.935806
16406.250000	-122.927887
16429.687500	-123.003029
16453.125000	-123.091820
16476.562500	-122.659492
16500.000000	-121.595848
16523.437500	-122.655937
16546.875000	-123.076187
16570.312500	-122.984169
16593.750000	-122.997513
16617.187500	-123.068161
16640.625000	-123.024788
16664.062500	-123.048820
16687.500000	-123.079689
16710.937500	-123.053894
16734.375000	-122.992775
16757.812500	-122.911415
16781.250000	-122.581093
16804.687500	-122.119385
16828.125000	-121.825241
16851.562500	-121.854500
16875.000000	-122.380692
16898.437500	-122.434944
16921.875000	-122.333298
16945.312500	-122.496819
16968.750000	-122.869385
16992.187500	-123.030373
17015.625000	-123.085144
17039.062500	-123.251343
17062.500000	-123.256813
17085.937500	-123.252457
17109.375000	-123.208664
17132.812500	-123.232208
17156.250000	-123.230637
17179.687500	-123.235992
17203.125000	-123.189713
17226.562500	-123.279793
17250.000000	-123.287102
17273.437500	-123.274422
17296.875000	-123.284431
17320.312500	-123.327484
17343.750000	-123.344002
17367.187500	-123.390869
17390.625000	-123.311546
17414.062500	-123.301826
17437.500000	-123.468102
17460.937500	-123.324760
17484.375000	-123.325073
17507.812500	-123.357140
17531.250000	-123.340752
17554.687500	-123.377296
17578.125000	-123.402657
17601.562500	-123.403328
17625.000000	-123.414101
17648.437500	-123.361740
17671.875000	-123.351486
17695.312500	-123.369484
17718.750000	-123.443398
17742.187500	-123.427956
17765.625000	-123.431358
17789.062500	-123.389854
17812.500000	-123.428101
17835.937500	-123.438225
17859.375000	-123.457626
17882.812500	-123.377800
17906.250000	-123.356293
17929.687500	-123.463966
17953.125000	-123.513657
17976.562500	-122.901581
18000.000000	-121.693626
18023.437500	-122.909431
18046.875000	-123.453239
18070.312500	-123.469666
18093.750000	-123.338791
18117.187500	-123.381584
18140.625000	-123.382736
18164.062500	-123.407692
18187.500000	-123.519180
18210.937500	-123.572853
18234.375000	-123.482086
18257.812500	-123.526573
18281.250000	-123.549950
18304.687500	-123.451401
18328.125000	-123.450760
18351.562500	-123.423248
18375.000000	-123.447525
18398.437500	-123.458855
18421.875000	-123.579521
18445.312500	-123.561096
18468.750000	-123.422119
18492.187500	-123.404945
18515.625000	-123.443665
18539.062500	-123.517517
18562.500000	-123.415146
18585.937500	-123.397507
