주파수 (Hz)	레벨 (dB)
23.437500	-100.731987
46.875000	-93.525887
70.312500	-81.848633
93.750000	-73.394722
117.187500	-68.368736
140.625000	-67.483368
164.062500	-68.161613
187.500000	-65.724831
210.937500	-64.356331
234.375000	-62.070938
257.812500	-64.004539
281.250000	-62.742428
304.687500	-61.679310
328.125000	-60.669098
351.562500	-61.875839
375.000000	-63.418274
398.437500	-64.876984
421.875000	-64.096657
445.312500	-59.647465
468.750000	-58.232571
492.187500	-61.903385
515.625000	-67.712494
539.062500	-59.993355
562.500000	-57.028130
585.937500	-64.761757
609.375000	-62.291721
632.812500	-60.571117
656.250000	-65.412590
679.687500	-64.743690
703.125000	-61.417652
726.562500	-64.618698
750.000000	-64.743423
773.437500	-70.936523
796.875000	-73.873497
820.312500	-66.497543
843.750000	-65.505196
867.187500	-64.462875
890.625000	-63.092461
914.062500	-71.484756
937.500000	-71.055824
960.937500	-75.723984
984.375000	-73.538872
1007.812500	-75.651382
1031.250000	-83.022301
1054.687500	-82.682976
1078.125000	-84.589493
1101.562500	-80.951729
1125.000000	-82.079796
1148.437500	-86.988441
1171.875000	-81.433853
1195.312500	-83.989662
1218.750000	-87.872459
1242.187500	-80.833893
1265.625000	-82.187759
1289.062500	-90.376358
1312.500000	-84.371384
1335.937500	-83.420204
1359.375000	-90.074829
1382.812500	-82.892159
1406.250000	-78.558899
1429.687500	-84.068855
1453.125000	-89.797081
1476.562500	-85.782959
1500.000000	-85.409698
1523.437500	-93.896568
1546.875000	-92.925575
1570.312500	-88.597191
1593.750000	-91.890297
1617.187500	-96.498924
1640.625000	-90.348534
1664.062500	-85.134865
1687.500000	-85.565895
1710.937500	-94.329643
1734.375000	-88.966965
1757.812500	-79.270576
1781.250000	-77.217987
1804.687500	-86.040901
1828.125000	-99.118393
1851.562500	-93.090424
1875.000000	-84.335648
1898.437500	-86.279396
1921.875000	-98.772247
1945.312500	-94.104912
1968.750000	-88.668694
1992.187500	-84.216621
2015.625000	-88.752724
2039.062500	-103.326714
2062.500000	-103.145012
2085.937500	-100.417770
2109.375000	-98.156227
2132.812500	-101.728104
2156.250000	-108.027023
2179.687500	-98.923416
2203.125000	-92.575943
2226.562500	-93.358192
2250.000000	-91.573692
2273.437500	-97.892517
2296.875000	-107.379974
2320.312500	-103.267403
2343.750000	-91.047752
2367.187500	-88.713448
2390.625000	-94.679214
2414.062500	-104.513382
2437.500000	-107.748627
2460.937500	-106.101875
2484.375000	-95.233658
2507.812500	-91.266533
2531.250000	-94.136772
2554.687500	-101.860977
2578.125000	-109.408195
2601.562500	-106.882843
2625.000000	-104.823502
2648.437500	-93.326370
2671.875000	-89.143295
2695.312500	-93.639656
2718.750000	-107.029022
2742.187500	-108.833611
2765.625000	-105.879471
2789.062500	-99.926926
2812.500000	-95.238144
2835.937500	-92.253708
2859.375000	-94.481453
2882.812500	-102.818100
2906.250000	-107.256538
2929.687500	-111.413681
2953.125000	-111.646675
2976.562500	-110.854378
3000.000000	-101.640770
3023.437500	-99.944206
3046.875000	-108.573830
3070.312500	-112.089058
3093.750000	-106.917824
3117.187500	-107.607346
3140.625000	-108.723244
3164.062500	-106.717499
3187.500000	-105.984756
3210.937500	-104.658386
3234.375000	-110.913681
3257.812500	-114.652107
3281.250000	-114.467247
3304.687500	-107.762695
3328.125000	-98.469215
3351.562500	-98.577553
3375.000000	-103.023384
3398.437500	-102.548889
3421.875000	-106.049591
3445.312500	-113.641281
3468.750000	-115.832130
3492.187500	-112.578560
3515.625000	-105.932274
3539.062500	-102.610176
3562.500000	-99.684364
3585.937500	-97.216988
3609.375000	-103.651062
3632.812500	-110.814804
3656.250000	-114.633728
3679.687500	-116.149124
3703.125000	-114.756470
3726.562500	-114.725502
3750.000000	-115.844109
3773.437500	-112.776367
3796.875000	-110.907021
3820.312500	-102.732979
3843.750000	-102.320534
3867.187500	-110.194519
3890.625000	-116.157951
3914.062500	-116.765854
3937.500000	-116.045570
3960.937500	-111.560524
3984.375000	-103.578911
4007.812500	-105.368248
4031.250000	-115.011948
4054.687500	-113.973061
4078.125000	-113.398705
4101.562500	-115.510391
4125.000000	-117.375908
4148.437500	-117.548180
4171.875000	-117.365051
4195.312500	-116.546410
4218.750000	-115.543945
4242.187500	-113.554779
4265.625000	-114.501030
4289.062500	-116.480247
4312.500000	-112.639160
4335.937500	-107.823021
4359.375000	-111.305916
4382.812500	-116.622215
4406.250000	-117.750938
4429.687500	-117.750549
4453.125000	-117.072281
4476.562500	-112.806992
4500.000000	-107.500526
4523.437500	-105.785202
4546.875000	-110.075180
4570.312500	-112.508369
4593.750000	-109.950798
4617.187500	-114.064957
4640.625000	-117.600258
4664.062500	-118.160149
4687.500000	-118.310242
4710.937500	-118.371658
4734.375000	-118.199432
4757.812500	-116.691727
4781.250000	-116.386574
4804.687500	-118.090805
4828.125000	-118.656860
4851.562500	-118.720993
4875.000000	-118.601639
4898.437500	-118.344780
4921.875000	-118.437454
4945.312500	-118.535538
4968.750000	-118.942177
4992.187500	-119.096939
5015.625000	-118.863838
5039.062500	-118.441124
5062.500000	-118.556969
5085.937500	-118.595970
5109.375000	-118.612877
5132.812500	-118.512001
5156.250000	-118.376846
5179.687500	-118.131607
5203.125000	-118.409172
5226.562500	-118.650780
5250.000000	-118.893623
5273.437500	-118.872917
5296.875000	-118.867798
5320.312500	-118.978668
5343.750000	-118.788078
5367.187500	-118.541229
5390.625000	-118.679291
5414.062500	-118.814240
5437.500000	-118.457916
5460.937500	-117.580841
5484.375000	-117.796066
5507.812500	-118.567108
5531.250000	-118.706825
5554.687500	-119.157005
5578.125000	-118.902245
5601.562500	-118.589584
5625.000000	-119.016945
5648.437500	-119.038017
5671.875000	-118.846718
5695.312500	-118.811028
5718.750000	-118.767082
5742.187500	-119.176384
5765.625000	-118.977806
5789.062500	-118.980354
5812.500000	-119.051697
5835.937500	-118.565178
5859.375000	-118.809875
5882.812500	-118.944366
5906.250000	-118.968803
5929.687500	-119.114922
5953.125000	-119.129105
5976.562500	-118.826935
6000.000000	-118.516548
6023.437500	-119.012711
6046.875000	-118.961929
6070.312500	-118.858871
6093.750000	-119.043877
6117.187500	-119.297089
6140.625000	-119.015793
6164.062500	-117.167870
6187.500000	-116.379738
6210.937500	-118.617439
6234.375000	-119.098206
6257.812500	-119.051552
6281.250000	-118.977242
6304.687500	-118.768929
6328.125000	-118.868484
6351.562500	-118.913422
6375.000000	-118.751556
6398.437500	-118.774208
6421.875000	-118.830093
6445.312500	-118.211578
6468.750000	-118.015320
6492.187500	-116.760895
6515.625000	-117.490677
6539.062500	-119.077812
6562.500000	-119.090164
6585.937500	-118.832176
6609.375000	-118.855560
6632.812500	-118.819176
6656.250000	-118.727730
6679.687500	-118.712082
6703.125000	-118.777550
6726.562500	-118.935471
6750.000000	-118.988541
6773.437500	-118.564911
6796.875000	-118.495377
6820.312500	-118.760567
6843.750000	-118.830078
6867.187500	-118.755707
6890.625000	-118.627174
6914.062500	-118.746170
6937.500000	-118.688179
6960.937500	-118.944519
6984.375000	-118.936325
7007.812500	-118.561432
7031.250000	-118.219292
7054.687500	-118.562027
7078.125000	-118.969902
7101.562500	-119.168915
7125.000000	-118.796593
7148.437500	-118.597534
7171.875000	-118.891975
7195.312500	-118.972450
7218.750000	-118.975220
7242.187500	-119.013023
7265.625000	-118.979897
7289.062500	-118.387650
7312.500000	-118.296494
7335.937500	-118.575813
7359.375000	-118.759422
7382.812500	-118.740730
7406.250000	-118.545822
7429.687500	-118.625572
7453.125000	-118.588669
7476.562500	-118.462814
7500.000000	-117.625816
7523.437500	-118.240761
7546.875000	-118.955704
7570.312500	-119.000877
7593.750000	-118.862709
7617.187500	-118.599228
7640.625000	-118.811768
7664.062500	-118.934853
7687.500000	-118.988617
7710.937500	-118.908165
7734.375000	-119.032990
7757.812500	-118.932251
7781.250000	-118.737640
7804.687500	-118.748444
7828.125000	-118.973671
7851.562500	-118.998306
7875.000000	-118.716026
7898.437500	-118.783379
7921.875000	-118.878136
7945.312500	-118.996216
7968.750000	-118.931686
7992.187500	-119.081856
8015.625000	-119.123756
8039.062500	-118.991920
8062.500000	-118.932785
8085.937500	-118.981949
8109.375000	-118.944107
8132.812500	-118.952545
8156.250000	-119.026230
8179.687500	-119.200508
8203.125000	-119.125084
8226.562500	-119.097343
8250.000000	-119.227921
8273.437500	-119.217140
8296.875000	-119.087769
8320.312500	-119.041702
8343.750000	-119.102600
8367.187500	-118.813263
8390.625000	-118.151772
8414.062500	-117.298187
8437.500000	-117.221191
8460.937500	-118.024841
8484.375000	-118.571030
8507.812500	-118.851494
8531.250000	-119.183167
8554.687500	-119.262535
8578.125000	-119.285423
8601.562500	-119.339615
8625.000000	-119.480011
8648.437500	-119.540474
8671.875000	-119.594177
8695.312500	-119.511642
8718.750000	-119.634186
8742.187500	-119.612289
8765.625000	-119.592232
8789.062500	-119.557938
8812.500000	-119.632759
8835.937500	-119.710831
8859.375000	-119.688805
8882.812500	-119.602829
8906.250000	-119.493065
8929.687500	-119.484962
8953.125000	-119.612801
8976.562500	-118.396790
9000.000000	-116.218353
9023.437500	-118.485558
9046.875000	-119.538460
9070.312500	-119.500702
9093.750000	-119.438820
9117.187500	-119.716743
9140.625000	-119.770882
9164.062500	-119.754547
9187.500000	-119.743645
9210.937500	-119.883751
9234.375000	-119.813416
9257.812500	-119.753349
9281.250000	-119.733650
9304.687500	-119.762177
9328.125000	-119.869041
9351.562500	-119.970726
9375.000000	-119.947983
9398.437500	-119.951920
9421.875000	-119.927101
9445.312500	-120.007660
9468.750000	-120.156967
9492.187500	-120.023216
9515.625000	-120.044922
9539.062500	-120.079865
9562.500000	-120.030792
9585.937500	-120.032051
9609.375000	-119.958435
9632.812500	-120.075241
9656.250000	-120.206879
9679.687500	-120.175438
9703.125000	-120.149231
9726.562500	-120.152885
9750.000000	-120.196426
9773.437500	-120.155975
9796.875000	-120.176788
9820.312500	-120.339592
9843.750000	-120.187157
9867.187500	-120.211662
9890.625000	-120.233650
9914.062500	-120.318184
9937.500000	-120.249100
9960.937500	-120.140961
9984.375000	-120.157837
10007.812500	-120.149788
10031.250000	-120.186073
10054.687500	-120.258980
10078.125000	-120.333229
10101.562500	-120.446411
10125.000000	-120.436539
10148.437500	-120.433632
10171.875000	-120.458725
10195.312500	-120.458176
10218.750000	-120.452110
10242.187500	-120.463364
10265.625000	-120.476723
10289.062500	-120.400688
10312.500000	-120.412376
10335.937500	-120.554504
10359.375000	-120.569489
10382.812500	-120.503136
10406.250000	-120.510696
10429.687500	-120.577957
10453.125000	-120.538986
10476.562500	-118.431824
10500.000000	-115.186188
10523.437500	-118.481071
10546.875000	-120.639946
10570.312500	-120.603424
10593.750000	-120.593750
10617.187500	-120.566277
10640.625000	-120.631416
10664.062500	-120.717056
10687.500000	-120.734848
10710.937500	-120.736763
10734.375000	-120.691132
10757.812500	-120.694969
10781.250000	-120.745995
10804.687500	-120.860405
10828.125000	-120.755829
10851.562500	-120.681473
10875.000000	-120.786690
10898.437500	-120.834633
10921.875000	-120.727165
10945.312500	-120.723282
10968.750000	-120.585571
10992.187500	-120.282654
11015.625000	-120.164536
11039.062500	-120.302399
11062.500000	-120.425995
11085.937500	-120.443672
11109.375000	-120.618843
11132.812500	-120.691284
11156.250000	-120.836189
11179.687500	-120.834618
11203.125000	-120.843933
11226.562500	-120.915733
11250.000000	-120.915199
11273.437500	-120.854324
11296.875000	-120.971931
11320.312500	-120.993370
11343.750000	-121.005577
11367.187500	-120.860863
11390.625000	-120.879082
11414.062500	-120.796104
11437.500000	-120.617241
11460.937500	-120.467346
11484.375000	-120.517830
11507.812500	-119.530235
11531.250000	-119.607582
11554.687500	-120.622520
11578.125000	-120.672394
11601.562500	-120.786659
11625.000000	-120.639999
11648.437500	-120.343437
11671.875000	-120.503319
11695.312500	-120.598122
11718.750000	-120.361000
11742.187500	-119.856552
11765.625000	-119.704651
11789.062500	-119.813881
11812.500000	-120.033333
11835.937500	-120.472374
11859.375000	-120.563286
11882.812500	-120.476089
11906.250000	-120.560440
11929.687500	-120.914680
11953.125000	-121.024590
11976.562500	-119.101105
12000.000000	-115.816544
12023.437500	-119.052078
12046.875000	-121.107834
12070.312500	-121.142502
12093.750000	-121.271339
12117.187500	-121.344299
12140.625000	-121.418022
12164.062500	-121.337090
12187.500000	-121.303185
12210.937500	-121.325287
12234.375000	-121.378731
12257.812500	-121.242607
12281.250000	-121.262169
12304.687500	-121.227631
12328.125000	-120.977654
12351.562500	-121.120003
12375.000000	-121.293396
12398.437500	-121.326813
12421.875000	-121.334122
12445.312500	-121.407532
12468.750000	-121.340149
12492.187500	-121.209206
12515.625000	-121.172211
12539.062500	-121.211021
12562.500000	-121.102531
12585.937500	-120.624001
12609.375000	-119.815895
12632.812500	-119.293739
12656.250000	-119.463432
12679.687500	-120.073242
12703.125000	-120.327065
12726.562500	-120.685043
12750.000000	-121.281815
12773.437500	-121.440849
12796.875000	-121.375549
12820.312500	-121.431671
12843.750000	-121.535126
12867.187500	-121.499580
12890.625000	-121.524162
12914.062500	-121.583733
12937.500000	-121.687256
12960.937500	-121.672150
12984.375000	-121.701355
13007.812500	-121.764748
13031.250000	-121.772995
13054.687500	-121.785980
13078.125000	-121.789925
13101.562500	-121.824196
13125.000000	-121.843567
13148.437500	-121.899307
13171.875000	-121.812981
13195.312500	-121.733398
13218.750000	-121.798317
13242.187500	-121.755020
13265.625000	-121.863548
13289.062500	-121.892746
13312.500000	-121.898781
13335.937500	-121.829956
13359.375000	-121.852478
13382.812500	-121.837769
13406.250000	-121.732597
13429.687500	-121.847054
13453.125000	-122.019501
13476.562500	-120.579880
13500.000000	-118.039841
13523.437500	-120.711533
13546.875000	-122.123444
13570.312500	-122.061760
13593.750000	-122.019791
13617.187500	-122.071220
13640.625000	-122.106697
13664.062500	-122.039680
13687.500000	-122.154236
13710.937500	-122.239891
13734.375000	-121.980904
13757.812500	-121.934616
13781.250000	-122.116615
13804.687500	-122.128365
13828.125000	-121.998764
13851.562500	-122.013649
13875.000000	-122.116661
13898.437500	-122.095016
13921.875000	-122.140533
13945.312500	-122.214012
13968.750000	-122.223251
13992.187500	-122.237968
14015.625000	-122.251595
14039.062500	-122.223419
14062.500000	-122.155655
14085.937500	-122.230690
14109.375000	-122.234383
14132.812500	-122.262444
14156.250000	-122.265465
14179.687500	-122.299278
14203.125000	-122.294380
14226.562500	-122.384956
14250.000000	-122.407677
14273.437500	-122.269524
14296.875000	-122.207275
14320.312500	-122.457336
14343.750000	-122.549194
14367.187500	-122.304901
14390.625000	-122.248535
14414.062500	-122.357056
14437.500000	-122.327866
14460.937500	-122.483994
14484.375000	-122.503143
14507.812500	-122.475204
14531.250000	-122.461113
14554.687500	-122.516304
14578.125000	-122.439117
14601.562500	-122.597366
14625.000000	-122.498337
14648.437500	-122.462456
14671.875000	-122.605995
14695.312500	-122.596779
14718.750000	-122.520905
14742.187500	-122.567924
14765.625000	-122.591171
14789.062500	-122.606216
14812.500000	-122.596283
14835.937500	-122.592384
14859.375000	-122.668907
14882.812500	-122.678535
14906.250000	-122.616753
14929.687500	-122.628044
14953.125000	-122.660728
14976.562500	-122.191910
15000.000000	-120.739845
15023.437500	-122.126633
15046.875000	-122.659706
15070.312500	-122.637383
15093.750000	-122.737350
15117.187500	-122.708397
15140.625000	-122.717575
15164.062500	-122.819733
15187.500000	-122.772957
15210.937500	-122.758064
15234.375000	-122.705818
15257.812500	-122.669243
15281.250000	-122.670044
15304.687500	-122.762100
15328.125000	-122.880417
15351.562500	-122.850967
15375.000000	-122.769875
15398.437500	-122.766014
15421.875000	-122.907188
15445.312500	-122.961487
15468.750000	-122.986359
15492.187500	-122.849960
15515.625000	-122.821747
15539.062500	-122.965309
15562.500000	-122.945229
15585.937500	-122.824356
15609.375000	-122.720924
15632.812500	-122.945343
15656.250000	-122.884804
15679.687500	-122.896744
15703.125000	-122.852814
15726.562500	-122.690201
15750.000000	-122.486832
15773.437500	-122.515213
15796.875000	-122.828568
15820.312500	-122.813301
15843.750000	-122.885208
15867.187500	-122.829895
15890.625000	-122.858452
15914.062500	-122.953812
15937.500000	-122.998360
15960.937500	-122.924728
15984.375000	-122.893402
16007.812500	-122.887794
16031.250000	-122.946808
16054.687500	-122.967781
16078.125000	-123.029182
16101.562500	-123.006889
16125.000000	-123.097748
16148.437500	-123.081093
16171.875000	-123.059578
16195.312500	-123.169762
16218.750000	-123.081642
16242.187500	-123.065529
16265.625000	-123.063019
16289.062500	-122.999390
16312.500000	-122.948364
16335.937500	-122.970543
16359.375000	-123.024338
16382.812500	-123.015907
16406.250000	-123.009117
16429.687500	-122.964844
16453.125000	-123.013550
16476.562500	-122.675957
16500.000000	-121.665741
16523.437500	-122.673698
16546.875000	-123.135307
16570.312500	-123.122696
16593.750000	-123.210342
16617.187500	-123.106544
16640.625000	-123.126205
16664.062500	-123.179100
16687.500000	-123.133545
16710.937500	-123.120720
16734.375000	-123.092659
16757.812500	-123.013344
16781.250000	-122.812256
16804.687500	-122.289879
16828.125000	-121.845642
16851.562500	-121.886490
16875.000000	-122.273552
16898.437500	-122.379791
16921.875000	-122.318169
16945.312500	-122.498589
16968.750000	-122.871239
16992.187500	-123.105507
17015.625000	-123.190735
17039.062500	-123.217659
17062.500000	-123.229584
17085.937500	-123.162804
17109.375000	-123.264893
17132.812500	-123.356537
17156.250000	-123.294548
17179.687500	-123.323067
17203.125000	-123.378540
17226.562500	-123.323921
17250.000000	-123.254509
17273.437500	-123.249634
17296.875000	-123.228790
17320.312500	-123.272881
17343.750000	-123.359612
17367.187500	-123.512016
17390.625000	-123.374008
17414.062500	-123.297401
17437.500000	-123.275696
17460.937500	-123.382744
17484.375000	-123.380791
17507.812500	-123.277397
17531.250000	-123.379135
17554.687500	-123.478828
17578.125000	-123.405388
17601.562500	-123.426483
17625.000000	-123.431564
17648.437500	-123.381462
17671.875000	-123.360870
17695.312500	-123.377609
17718.750000	-123.377159
17742.187500	-123.410965
17765.625000	-123.440498
17789.062500	-123.389145
17812.500000	-123.384758
17835.937500	-123.393661
17859.375000	-123.415985
17882.812500	-123.377968
17906.250000	-123.481888
17929.687500	-123.462067
17953.125000	-123.476028
17976.562500	-122.868149
18000.000000	-121.581993
18023.437500	-122.837227
18046.875000	-123.416824
18070.312500	-123.487640
18093.750000	-123.449501
18117.187500	-123.422195
18140.625000	-123.449844
18164.062500	-123.575485
18187.500000	-123.593193
18210.937500	-123.558388
18234.375000	-123.520607
18257.812500	-123.472008
18281.250000	-123.394852
18304.687500	-123.408150
18328.125000	-123.478943
18351.562500	-123.576828
18375.000000	-123.598946
18398.437500	-123.465294
18421.875000	-123.451866
18445.312500	-123.445259
18468.750000	-123.491371
18492.187500	-123.446022
18515.625000	-123.425461
