주파수 (Hz)	레벨 (dB)
11.718750	-108.070122
23.437500	-104.021492
35.156250	-97.112267
46.875000	-90.328262
58.593750	-83.504478
70.312500	-70.912399
82.031250	-59.978432
93.750000	-49.537327
105.468750	-50.441845
117.187500	-57.021664
128.906250	-56.230106
140.625000	-44.040810
152.343750	-42.814690
164.062500	-49.109287
175.781250	-45.821198
187.500000	-35.763374
199.218750	-32.364891
210.937500	-41.030788
222.656250	-47.259632
234.375000	-53.954632
246.093750	-57.441689
257.812500	-55.400787
269.531250	-51.810570
281.250000	-45.097080
292.968750	-38.741154
304.687500	-42.846420
316.406250	-52.843941
328.125000	-52.243759
339.843750	-40.064934
351.562500	-35.578190
363.281250	-41.868710
375.000000	-44.416714
386.718750	-35.384975
398.437500	-34.831276
410.156250	-44.356026
421.875000	-47.075832
433.593750	-34.715321
445.312500	-32.258354
457.031250	-40.105274
468.750000	-47.205868
480.468750	-49.640297
492.187500	-48.266182
503.906250	-47.096554
515.625000	-35.996666
527.343750	-32.205875
539.062500	-39.180454
550.781250	-52.264980
562.500000	-49.867378
574.218750	-41.631500
585.937500	-32.159893
597.656250	-33.444950
609.375000	-47.979267
621.093750	-54.097683
632.812500	-53.206390
644.531250	-52.876610
656.250000	-49.257313
667.968750	-44.840267
679.687500	-39.659748
691.406250	-31.389053
703.125000	-27.423811
714.843750	-33.896339
726.562500	-46.063293
738.281250	-50.549313
750.000000	-52.082764
761.718750	-50.095657
773.437500	-39.900265
785.156250	-31.358637
796.875000	-33.930180
808.593750	-46.215179
820.312500	-49.855930
832.031250	-50.065636
843.750000	-48.920345
855.468750	-45.363613
867.187500	-33.925041
878.906250	-23.284868
890.625000	-23.718922
902.343750	-35.335190
914.062500	-48.270515
925.781250	-55.311619
937.500000	-58.718765
949.218750	-59.711792
960.937500	-56.292286
972.656250	-55.645996
984.375000	-54.223522
996.093750	-56.763657
1007.812500	-63.601429
1019.531250	-60.845753
1031.250000	-56.161983
1042.968750	-50.533607
1054.687500	-46.126041
1066.406250	-51.900623
1078.125000	-59.522362
1089.843750	-56.813992
1101.562500	-51.370239
1113.281250	-52.168118
1125.000000	-61.805443
1136.718750	-63.490616
1148.437500	-62.092617
1160.156250	-57.928185
1171.875000	-42.662624
1183.593750	-37.179626
1195.312500	-42.593468
1207.031250	-56.795788
1218.750000	-55.889393
1230.468750	-52.030441
1242.187500	-56.144001
1253.906250	-62.840286
1265.625000	-63.978081
1277.343750	-61.323547
1289.062500	-58.981762
1300.781250	-57.627964
1312.500000	-51.405289
1324.218750	-44.316441
1335.937500	-45.864281
1347.656250	-52.463345
1359.375000	-59.413395
1371.093750	-51.480587
1382.812500	-46.585827
1394.531250	-50.118279
1406.250000	-47.558208
1417.968750	-51.774864
1429.687500	-61.408054
1441.406250	-59.983376
1453.125000	-59.531326
1464.843750	-59.780369
1476.562500	-54.907959
1488.281250	-54.735069
1500.000000	-61.762573
1511.718750	-69.523941
1523.437500	-66.835594
1535.156250	-64.885788
1546.875000	-58.735229
1558.593750	-55.842041
1570.312500	-45.269005
1582.031250	-38.418041
1593.750000	-41.673687
1605.468750	-56.331718
1617.187500	-64.333450
1628.906250	-63.722145
1640.625000	-63.679062
1652.343750	-62.451290
1664.062500	-63.344257
1675.781250	-64.149628
1687.500000	-64.739182
1699.218750	-64.717560
1710.937500	-63.508129
1722.656250	-61.141830
1734.375000	-57.458626
1746.093750	-53.807858
1757.812500	-44.817196
1769.531250	-38.328720
1781.250000	-39.798611
1792.968750	-49.617661
1804.687500	-61.016247
1816.406250	-63.469673
1828.125000	-64.335564
1839.843750	-64.615273
1851.562500	-65.596741
1863.281250	-65.122795
1875.000000	-64.731087
1886.718750	-65.191833
1898.437500	-65.452759
1910.156250	-66.675339
1921.875000	-64.163086
1933.593750	-57.907051
1945.312500	-56.275581
1957.031250	-61.514614
1968.750000	-54.768539
1980.468750	-50.445454
1992.187500	-54.946972
2003.906250	-60.912151
2015.625000	-66.470139
2027.343750	-72.263687
2039.062500	-71.750061
2050.781250	-70.309021
2062.500000	-68.088028
2074.218750	-59.132355
2085.937500	-57.553673
2097.656250	-59.724892
2109.375000	-50.039883
2121.093750	-46.338264
2132.812500	-52.229191
2144.531250	-63.545341
2156.250000	-66.851532
2167.968750	-67.968498
2179.687500	-65.398201
2191.406250	-63.989971
2203.125000	-64.563332
2214.843750	-50.959171
2226.562500	-44.749641
2238.281250	-49.104740
2250.000000	-59.699810
2261.718750	-65.931099
2273.437500	-67.389481
2285.156250	-66.489548
2296.875000	-65.571892
2308.593750	-65.362549
2320.312500	-67.814865
2332.031250	-67.264412
2343.750000	-67.212440
2355.468750	-61.251156
2367.187500	-51.202122
2378.906250	-44.456001
2390.625000	-46.258850
2402.343750	-56.804218
2414.062500	-64.641624
2425.781250	-65.503754
2437.500000	-66.463318
2449.218750	-69.804169
2460.937500	-68.385201
2472.656250	-61.991638
2484.375000	-55.295815
2496.093750	-57.576580
2507.812500	-68.905113
2519.531250	-73.316650
2531.250000	-73.824806
2542.968750	-74.104210
2554.687500	-73.993057
2566.406250	-75.755440
2578.125000	-73.649849
2589.843750	-67.905312
2601.562500	-68.302208
2613.281250	-73.754135
2625.000000	-71.136040
2636.718750	-64.837662
2648.437500	-57.682735
2660.156250	-47.924122
2671.875000	-45.929893
2683.593750	-47.345596
2695.312500	-53.100803
2707.031250	-63.441711
2718.750000	-68.942451
2730.468750	-73.754929
2742.187500	-75.505226
2753.906250	-74.690208
2765.625000	-74.223969
2777.343750	-67.618607
2789.062500	-60.659237
2800.781250	-60.658405
2812.500000	-65.547127
2824.218750	-55.317753
2835.937500	-49.479061
2847.656250	-53.696434
2859.375000	-63.266663
2871.093750	-67.072792
2882.812500	-68.424286
2894.531250	-70.773224
2906.250000	-72.253075
2917.968750	-69.390823
2929.687500	-70.920349
2941.406250	-74.132538
2953.125000	-72.927338
2964.843750	-72.315239
2976.562500	-67.681046
2988.281250	-58.285809
3000.000000	-58.235699
3011.718750	-58.657162
3023.437500	-63.548172
3035.156250	-74.437721
3046.875000	-76.671585
3058.593750	-76.692436
3070.312500	-72.940445
3082.031250	-72.205421
3093.750000	-71.339836
3105.468750	-70.679504
3117.187500	-67.928268
3128.906250	-58.334946
3140.625000	-50.831348
3152.343750	-52.698910
3164.062500	-61.440563
3175.781250	-60.224674
3187.500000	-53.823078
3199.218750	-54.785770
3210.937500	-58.542187
3222.656250	-62.497814
3234.375000	-69.939346
3246.093750	-73.197838
3257.812500	-74.586884
3269.531250	-75.283272
3281.250000	-75.437881
3292.968750	-74.376640
3304.687500	-71.946487
3316.406250	-71.219719
3328.125000	-72.069748
3339.843750	-71.324348
3351.562500	-78.357101
3363.281250	-81.112968
3375.000000	-80.310417
3386.718750	-75.919037
3398.437500	-77.091583
3410.156250	-82.868042
3421.875000	-79.278252
3433.593750	-79.130524
3445.312500	-78.896919
3457.031250	-79.445930
3468.750000	-80.184258
3480.468750	-79.533615
3492.187500	-78.899178
3503.906250	-79.821075
3515.625000	-76.981659
3527.343750	-72.610191
3539.062500	-69.055260
3550.781250	-66.150681
3562.500000	-63.986656
3574.218750	-58.089874
3585.937500	-56.863419
3597.656250	-58.953327
3609.375000	-59.158817
3621.093750	-60.955952
3632.812500	-67.810593
3644.531250	-72.967667
3656.250000	-77.721062
3667.968750	-80.864746
3679.687500	-81.054543
3691.406250	-80.829124
3703.125000	-80.729950
3714.843750	-80.875771
3726.562500	-79.772850
3738.281250	-79.091461
3750.000000	-77.633484
3761.718750	-66.117004
3773.437500	-63.583038
3785.156250	-70.967300
3796.875000	-78.609764
3808.593750	-77.926155
3820.312500	-81.140892
3832.031250	-84.889694
3843.750000	-84.393303
3855.468750	-84.990601
3867.187500	-84.454681
3878.906250	-84.368645
3890.625000	-84.434219
3902.343750	-86.842636
3914.062500	-86.670227
3925.781250	-83.439079
3937.500000	-82.467773
3949.218750	-81.802895
3960.937500	-79.408264
3972.656250	-78.210480
3984.375000	-75.593163
3996.093750	-66.834129
4007.812500	-63.620472
4019.531250	-64.555908
4031.250000	-69.945351
4042.968750	-77.562218
4054.687500	-75.238731
4066.406250	-74.234665
4078.125000	-62.539421
4089.843750	-58.583672
4101.562500	-64.111366
4113.281250	-71.242836
4125.000000	-76.869354
4136.718750	-79.963074
4148.437500	-79.245239
4160.156250	-78.153603
4171.875000	-79.656570
4183.593750	-80.227051
4195.312500	-78.875984
4207.031250	-78.720467
4218.750000	-74.824829
4230.468750	-67.268532
4242.187500	-60.965321
4253.906250	-63.189011
4265.625000	-73.980034
4277.343750	-81.321556
4289.062500	-81.234673
4300.781250	-72.608109
4312.500000	-69.200966
4324.218750	-64.905151
4335.937500	-61.792709
4347.656250	-67.825043
4359.375000	-78.571602
4371.093750	-81.028954
4382.812500	-83.421768
4394.531250	-83.022102
4406.250000	-82.388916
4417.968750	-78.822823
4429.687500	-74.823906
4441.406250	-73.311523
4453.125000	-72.979553
4464.843750	-73.857468
4476.562500	-70.614182
4488.281250	-70.433723
4500.000000	-66.005516
4511.718750	-58.777439
4523.437500	-58.125687
4535.156250	-58.081867
4546.875000	-61.429413
4558.593750	-70.462456
4570.312500	-70.746666
4582.031250	-73.188805
4593.750000	-79.498116
4605.468750	-80.447762
4617.187500	-84.337364
4628.906250	-82.496788
4640.625000	-80.367294
4652.343750	-79.212234
4664.062500	-79.061516
4675.781250	-77.097672
4687.500000	-75.895454
4699.218750	-81.038452
4710.937500	-82.808937
4722.656250	-83.316513
4734.375000	-81.076233
4746.093750	-76.818062
4757.812500	-79.167824
4769.531250	-80.793182
4781.250000	-81.231544
4792.968750	-82.990952
4804.687500	-84.056900
4816.406250	-81.290565
4828.125000	-74.879662
4839.843750	-70.177277
4851.562500	-67.141106
4863.281250	-68.573250
4875.000000	-67.878853
4886.718750	-66.275002
4898.437500	-72.316673
4910.156250	-75.543633
4921.875000	-74.157028
4933.593750	-71.363617
4945.312500	-74.060448
4957.031250	-83.001167
4968.750000	-86.013199
4980.468750	-84.802444
4992.187500	-85.659935
5003.906250	-85.764343
5015.625000	-84.377434
5027.343750	-82.493820
5039.062500	-82.251999
5050.781250	-75.877701
5062.500000	-68.931595
5074.218750	-70.421135
5085.937500	-79.047302
5097.656250	-81.977844
5109.375000	-84.635277
5121.093750	-86.496826
5132.812500	-86.960190
5144.531250	-82.603455
5156.250000	-82.484764
5167.968750	-87.861702
5179.687500	-87.885689
5191.406250	-88.523102
5203.125000	-88.813545
5214.843750	-87.184486
5226.562500	-86.853691
5238.281250	-90.064102
5250.000000	-91.571968
5261.718750	-81.691086
5273.437500	-78.842567
5285.156250	-82.861656
5296.875000	-84.027214
5308.593750	-84.164780
5320.312500	-84.359634
5332.031250	-81.652870
5343.750000	-83.108994
5355.468750	-82.647522
5367.187500	-82.603928
5378.906250	-84.589561
5390.625000	-86.974617
5402.343750	-88.457932
5414.062500	-86.539124
5425.781250	-84.793037
5437.500000	-77.885681
5449.218750	-70.834297
5460.937500	-67.095764
5472.656250	-67.142624
5484.375000	-68.338547
5496.093750	-70.103470
5507.812500	-78.456627
5519.531250	-79.556931
5531.250000	-78.779373
5542.968750	-80.104492
5554.687500	-72.543732
5566.406250	-68.839798
5578.125000	-72.998032
5589.843750	-82.247299
5601.562500	-86.383575
5613.281250	-89.412666
5625.000000	-92.051788
5636.718750	-95.040932
5648.437500	-94.759018
5660.156250	-91.076111
5671.875000	-91.065506
5683.593750	-86.701241
5695.312500	-83.518845
5707.031250	-73.185867
5718.750000	-68.440491
5730.468750	-70.735733
5742.187500	-68.167534
5753.906250	-68.488144
5765.625000	-78.153175
5777.343750	-83.277908
5789.062500	-86.245392
5800.781250	-82.473343
5812.500000	-73.703026
5824.218750	-62.926529
5835.937500	-61.259121
5847.656250	-68.287682
5859.375000	-78.085533
5871.093750	-81.481895
5882.812500	-82.732666
5894.531250	-84.129776
5906.250000	-84.489174
5917.968750	-85.792496
5929.687500	-85.526848
5941.406250	-82.807770
5953.125000	-81.222664
5964.843750	-80.497528
5976.562500	-83.555679
5988.281250	-84.586838
6000.000000	-84.685822
6011.718750	-84.213806
6023.437500	-83.191505
6035.156250	-78.058044
6046.875000	-75.740051
6058.593750	-78.140305
6070.312500	-79.889099
6082.031250	-73.445702
6093.750000	-73.169182
6105.468750	-78.547081
6117.187500	-79.436470
6128.906250	-78.376663
6140.625000	-82.771622
6152.343750	-82.619568
6164.062500	-82.529541
6175.781250	-82.582397
6187.500000	-84.177841
6199.218750	-85.477386
6210.937500	-81.261482
6222.656250	-78.784218
6234.375000	-81.472862
6246.093750	-87.586472
6257.812500	-92.592949
6269.531250	-94.896622
6281.250000	-92.287155
6292.968750	-90.407532
6304.687500	-90.596748
6316.406250	-90.194168
6328.125000	-89.900620
6339.843750	-87.921669
6351.562500	-88.710251
6363.281250	-86.646309
6375.000000	-84.071518
6386.718750	-85.104126
6398.437500	-87.883621
6410.156250	-90.735916
6421.875000	-91.719772
6433.593750	-89.941689
6445.312500	-84.835098
6457.031250	-75.416016
6468.750000	-70.657295
6480.468750	-70.345490
6492.187500	-75.647476
6503.906250	-70.721146
6515.625000	-69.414963
6527.343750	-77.873657
6539.062500	-86.460617
6550.781250	-86.267761
6562.500000	-86.801537
6574.218750	-85.846832
6585.937500	-80.439735
6597.656250	-73.774986
6609.375000	-71.131248
6621.093750	-73.681389
6632.812500	-79.295273
6644.531250	-84.691513
6656.250000	-87.813141
6667.968750	-85.353409
6679.687500	-81.093750
6691.406250	-83.810188
6703.125000	-91.080154
6714.843750	-85.769318
6726.562500	-83.720428
6738.281250	-86.982269
6750.000000	-82.914612
6761.718750	-80.712387
6773.437500	-85.742737
6785.156250	-91.312683
6796.875000	-92.687790
6808.593750	-91.916458
6820.312500	-93.137878
6832.031250	-94.566544
6843.750000	-96.246269
6855.468750	-96.354057
6867.187500	-95.657333
6878.906250	-95.459427
6890.625000	-94.848190
6902.343750	-90.711166
6914.062500	-89.617508
6925.781250	-91.524734
6937.500000	-93.556747
6949.218750	-94.625008
6960.937500	-92.508636
6972.656250	-88.755402
6984.375000	-89.420090
6996.093750	-93.888893
7007.812500	-94.050652
7019.531250	-96.238823
7031.250000	-96.265396
7042.968750	-94.770744
7054.687500	-96.788742
7066.406250	-97.417717
7078.125000	-95.731796
7089.843750	-95.956566
7101.562500	-95.601936
7113.281250	-96.042282
7125.000000	-83.112335
7136.718750	-78.763626
7148.437500	-81.758461
7160.156250	-89.575981
7171.875000	-94.945686
7183.593750	-97.546616
7195.312500	-97.788071
7207.031250	-96.027245
7218.750000	-98.671272
7230.468750	-95.847244
7242.187500	-92.474533
7253.906250	-96.792191
7265.625000	-98.382690
7277.343750	-97.324570
7289.062500	-95.404823
7300.781250	-96.061363
7312.500000	-98.529327
7324.218750	-99.207069
7335.937500	-98.595360
7347.656250	-98.817986
7359.375000	-98.254807
7371.093750	-97.794830
7382.812500	-96.023354
7394.531250	-93.949760
7406.250000	-93.148041
7417.968750	-91.106827
7429.687500	-88.008003
7441.406250	-86.445740
7453.125000	-84.263260
7464.843750	-77.573395
7476.562500	-74.624542
7488.281250	-75.777420
7500.000000	-79.060562
7511.718750	-79.243935
7523.437500	-76.527077
7535.156250	-76.341103
7546.875000	-82.349411
7558.593750	-86.072189
7570.312500	-87.802330
7582.031250	-90.352882
7593.750000	-92.335876
7605.468750	-91.635559
7617.187500	-90.780060
7628.906250	-90.834183
7640.625000	-89.751465
7652.343750	-90.398285
7664.062500	-88.873894
7675.781250	-80.212875
7687.500000	-75.955528
7699.218750	-79.541916
7710.937500	-88.058975
7722.656250	-92.900497
7734.375000	-95.023430
7746.093750	-98.172752
7757.812500	-100.332489
7769.531250	-101.433914
7781.250000	-99.123749
7792.968750	-98.838997
7804.687500	-98.965378
7816.406250	-96.842369
7828.125000	-97.159996
7839.843750	-91.348351
7851.562500	-79.513351
7863.281250	-75.791374
7875.000000	-81.576286
7886.718750	-93.258568
7898.437500	-96.342468
7910.156250	-98.236206
7921.875000	-98.098457
7933.593750	-98.306168
7945.312500	-100.208740
7957.031250	-99.726532
7968.750000	-98.770744
7980.468750	-96.966209
7992.187500	-95.419533
8003.906250	-96.673531
8015.625000	-98.131584
8027.343750	-98.094917
8039.062500	-96.570633
8050.781250	-94.370293
8062.500000	-89.686699
8074.218750	-89.372978
8085.937500	-95.891396
8097.656250	-89.602982
8109.375000	-89.595146
8121.093750	-94.711693
8132.812500	-97.461082
8144.531250	-98.226547
8156.250000	-100.311089
8167.968750	-102.645866
8179.687500	-100.651894
8191.406250	-101.689896
8203.125000	-103.765572
8214.843750	-101.147491
8226.562500	-97.071678
8238.281250	-92.075974
8250.000000	-85.378769
8261.718750	-85.248421
8273.437500	-91.704536
8285.156250	-94.906593
8296.875000	-96.673828
8308.593750	-96.968781
8320.312500	-96.931839
8332.031250	-95.898193
8343.750000	-93.872055
8355.468750	-89.467064
8367.187500	-86.306084
8378.906250	-86.924622
8390.625000	-90.566704
8402.343750	-93.975807
8414.062500	-95.374611
8425.781250	-88.481422
8437.500000	-84.986000
8449.218750	-86.227997
8460.937500	-89.524872
8472.656250	-89.586243
8484.375000	-90.312233
8496.093750	-91.762421
8507.812500	-89.172852
8519.531250	-78.561562
8531.250000	-74.092857
8542.968750	-74.634056
8554.687500	-78.268562
8566.406250	-87.468254
8578.125000	-80.687210
8589.843750	-82.354759
8601.562500	-87.759087
8613.281250	-90.728745
8625.000000	-92.016037
8636.718750	-94.631210
8648.437500	-97.738098
8660.156250	-99.319473
8671.875000	-97.406059
8683.593750	-99.681587
8695.312500	-101.901810
8707.031250	-101.510506
8718.750000	-101.068268
8730.468750	-100.569977
8742.187500	-99.176178
8753.906250	-98.635658
8765.625000	-101.452888
8777.343750	-101.161583
8789.062500	-97.461578
8800.781250	-96.683662
8812.500000	-98.007919
8824.218750	-90.128883
8835.937500	-87.086876
8847.656250	-91.326202
8859.375000	-94.592499
8871.093750	-92.164345
8882.812500	-92.952530
8894.531250	-94.423584
8906.250000	-94.014648
8917.968750	-93.868011
8929.687500	-94.263489
8941.406250	-96.558655
8953.125000	-100.471657
8964.843750	-101.122643
8976.562500	-103.313515
8988.281250	-102.206429
9000.000000	-101.200760
9011.718750	-100.404175
9023.437500	-100.511627
9035.156250	-100.417084
9046.875000	-98.609375
9058.593750	-97.695999
9070.312500	-97.781761
9082.031250	-97.318291
9093.750000	-97.067299
9105.468750	-92.096222
9117.187500	-84.656006
9128.906250	-84.616837
9140.625000	-91.980553
9152.343750	-96.391617
9164.062500	-97.200493
9175.781250	-102.805145
9187.500000	-106.157082
9199.218750	-104.667068
9210.937500	-100.655434
9222.656250	-96.382423
9234.375000	-94.349640
9246.093750	-95.681221
9257.812500	-97.298431
9269.531250	-98.188553
9281.250000	-99.141441
9292.968750	-99.832985
9304.687500	-100.839272
9316.406250	-101.804535
9328.125000	-100.059097
9339.843750	-99.035698
9351.562500	-98.485893
9363.281250	-96.880066
9375.000000	-95.728142
9386.718750	-94.299576
9398.437500	-97.569618
9410.156250	-91.372452
9421.875000	-91.518150
9433.593750	-92.018715
9445.312500	-91.840012
9457.031250	-96.680588
9468.750000	-94.646034
9480.468750	-94.757286
9492.187500	-95.088409
9503.906250	-95.887558
9515.625000	-95.310974
9527.343750	-96.613510
9539.062500	-97.295784
9550.781250	-101.635155
9562.500000	-101.468102
9574.218750	-96.625664
9585.937500	-90.477768
9597.656250	-86.075859
9609.375000	-86.319618
9621.093750	-88.151672
9632.812500	-89.120148
9644.531250	-90.660583
9656.250000	-92.001381
9667.968750	-89.722969
9679.687500	-88.270447
9691.406250	-91.108894
9703.125000	-93.636292
9714.843750	-93.458809
9726.562500	-95.050728
9738.281250	-99.032555
9750.000000	-100.167152
9761.718750	-96.703323
9773.437500	-96.338829
9785.156250	-96.839249
9796.875000	-96.888275
9808.593750	-98.709274
9820.312500	-100.620369
9832.031250	-99.344154
9843.750000	-98.050964
9855.468750	-95.679985
9867.187500	-95.199432
9878.906250	-95.696678
9890.625000	-93.937973
9902.343750	-95.783379
9914.062500	-102.248802
9925.781250	-102.942520
9937.500000	-103.079330
9949.218750	-107.792282
9960.937500	-103.516281
9972.656250	-94.963089
9984.375000	-93.600052
9996.093750	-93.323151
10007.812500	-96.802658
10019.531250	-95.082832
10031.250000	-90.806923
10042.968750	-93.810402
10054.687500	-95.614487
10066.406250	-95.980766
10078.125000	-98.278526
10089.843750	-99.702293
10101.562500	-101.539185
10113.281250	-103.304901
10125.000000	-104.560310
10136.718750	-101.267776
10148.437500	-102.371750
10160.156250	-101.397369
10171.875000	-96.794960
10183.593750	-95.654785
10195.312500	-96.392281
