주파수 (Hz)	레벨 (dB)
23.437500	-95.086197
46.875000	-80.154839
70.312500	-67.951965
93.750000	-59.678101
117.187500	-56.511074
140.625000	-52.324898
164.062500	-51.021744
187.500000	-49.007160
210.937500	-48.912884
234.375000	-48.953785
257.812500	-47.519035
281.250000	-47.871639
304.687500	-48.364895
328.125000	-47.527977
351.562500	-48.140747
375.000000	-45.285580
398.437500	-43.220993
421.875000	-47.741302
445.312500	-48.158409
468.750000	-46.403328
492.187500	-47.367058
515.625000	-46.034000
539.062500	-47.389847
562.500000	-52.359795
585.937500	-48.976437
609.375000	-49.601658
632.812500	-49.507545
656.250000	-46.887585
679.687500	-46.942539
703.125000	-45.486469
726.562500	-51.231895
750.000000	-58.218761
773.437500	-55.164768
796.875000	-53.888023
820.312500	-52.239021
843.750000	-51.693150
867.187500	-55.778622
890.625000	-55.282314
914.062500	-61.634003
937.500000	-62.303719
960.937500	-66.669662
984.375000	-63.137974
1007.812500	-64.107742
1031.250000	-62.180561
1054.687500	-58.301540
1078.125000	-63.380039
1101.562500	-64.621864
1125.000000	-67.752533
1148.437500	-66.962143
1171.875000	-55.194382
1195.312500	-55.007084
1218.750000	-64.829475
1242.187500	-59.673557
1265.625000	-60.027550
1289.062500	-67.952286
1312.500000	-64.803070
1335.937500	-64.871849
1359.375000	-67.893410
1382.812500	-62.675907
1406.250000	-60.332546
1429.687500	-65.277954
1453.125000	-70.503525
1476.562500	-65.171951
1500.000000	-65.178101
1523.437500	-70.737595
1546.875000	-67.375710
1570.312500	-61.304092
1593.750000	-61.433025
1617.187500	-70.925987
1640.625000	-69.783325
1664.062500	-62.430454
1687.500000	-63.787346
1710.937500	-73.114143
1734.375000	-73.441879
1757.812500	-65.863998
1781.250000	-63.227245
1804.687500	-69.348503
1828.125000	-73.047287
1851.562500	-68.216148
1875.000000	-65.406395
1898.437500	-67.027367
1921.875000	-73.640610
1945.312500	-73.027046
1968.750000	-68.919006
1992.187500	-66.793877
2015.625000	-71.073059
2039.062500	-79.342140
2062.500000	-74.993507
2085.937500	-70.590889
2109.375000	-66.726730
2132.812500	-68.223106
2156.250000	-77.835129
2179.687500	-77.135391
2203.125000	-72.935394
2226.562500	-70.624939
2250.000000	-71.340569
2273.437500	-77.609009
2296.875000	-81.529320
2320.312500	-77.148247
2343.750000	-74.166969
2367.187500	-67.584679
2390.625000	-66.206131
2414.062500	-74.113609
2437.500000	-76.908142
2460.937500	-77.722847
2484.375000	-74.023682
2507.812500	-68.565536
2531.250000	-67.284599
2554.687500	-75.531021
2578.125000	-81.414474
2601.562500	-79.208328
2625.000000	-78.303116
2648.437500	-75.025200
2671.875000	-72.101212
2695.312500	-73.744278
2718.750000	-80.135872
2742.187500	-80.772728
2765.625000	-77.128906
2789.062500	-74.893578
2812.500000	-75.101700
2835.937500	-71.743393
2859.375000	-73.623932
2882.812500	-78.930199
2906.250000	-84.043121
2929.687500	-82.573723
2953.125000	-75.796539
2976.562500	-73.145470
3000.000000	-69.630547
3023.437500	-71.965836
3046.875000	-80.309883
3070.312500	-85.127304
3093.750000	-79.024055
3117.187500	-77.985832
3140.625000	-74.972832
3164.062500	-77.002945
3187.500000	-75.122711
3210.937500	-74.649574
3234.375000	-79.484673
3257.812500	-87.924263
3281.250000	-84.813805
3304.687500	-82.262436
3328.125000	-81.883224
3351.562500	-80.803551
3375.000000	-74.786400
3398.437500	-76.211075
3421.875000	-83.782738
3445.312500	-87.772041
3468.750000	-89.813515
3492.187500	-87.078911
3515.625000	-86.146294
3539.062500	-83.171890
3562.500000	-84.097336
3585.937500	-82.601067
3609.375000	-79.986664
3632.812500	-80.761940
3656.250000	-85.768890
3679.687500	-90.272583
3703.125000	-89.629562
3726.562500	-89.535057
3750.000000	-85.196381
3773.437500	-81.190964
3796.875000	-83.502129
3820.312500	-82.256340
3843.750000	-82.829262
3867.187500	-86.777420
3890.625000	-94.166962
3914.062500	-94.408043
3937.500000	-91.088501
3960.937500	-90.209824
3984.375000	-90.109970
4007.812500	-88.047333
4031.250000	-89.197945
4054.687500	-87.908264
4078.125000	-82.010071
4101.562500	-83.174530
4125.000000	-91.572113
4148.437500	-93.609795
4171.875000	-93.493851
4195.312500	-88.262115
4218.750000	-82.857384
4242.187500	-78.086311
4265.625000	-79.733276
4289.062500	-84.885704
4312.500000	-83.686951
4335.937500	-79.757774
4359.375000	-83.472130
4382.812500	-90.842484
4406.250000	-91.510193
4429.687500	-92.678352
4453.125000	-89.790291
4476.562500	-84.961395
4500.000000	-85.987053
4523.437500	-90.678711
4546.875000	-90.605888
4570.312500	-90.260742
4593.750000	-87.448387
4617.187500	-86.755890
4640.625000	-92.413872
4664.062500	-94.717094
4687.500000	-91.142815
4710.937500	-92.611130
4734.375000	-90.832565
4757.812500	-87.578270
4781.250000	-90.092255
4804.687500	-95.447876
4828.125000	-93.245064
4851.562500	-91.041405
4875.000000	-89.129272
4898.437500	-90.434639
4921.875000	-84.996613
4945.312500	-83.948288
4968.750000	-92.245354
4992.187500	-97.535561
5015.625000	-99.864594
5039.062500	-95.546837
5062.500000	-88.381371
5085.937500	-90.364502
5109.375000	-94.704636
5132.812500	-85.626663
5156.250000	-83.204689
5179.687500	-87.943405
5203.125000	-95.198044
5226.562500	-97.203613
5250.000000	-98.191544
5273.437500	-97.532959
5296.875000	-100.235298
5320.312500	-99.114159
5343.750000	-96.138283
5367.187500	-94.070183
5390.625000	-94.703552
5414.062500	-96.158081
5437.500000	-96.417656
5460.937500	-95.280655
5484.375000	-94.282333
5507.812500	-96.365837
5531.250000	-96.357826
5554.687500	-93.582863
5578.125000	-93.238533
5601.562500	-96.702095
5625.000000	-97.575584
5648.437500	-103.444786
5671.875000	-103.778198
5695.312500	-97.303062
5718.750000	-92.545288
5742.187500	-95.852776
5765.625000	-99.038261
5789.062500	-100.337601
5812.500000	-93.783302
5835.937500	-88.580353
5859.375000	-91.450798
5882.812500	-97.470245
5906.250000	-97.692368
5929.687500	-97.899818
5953.125000	-96.144875
5976.562500	-94.708893
6000.000000	-99.779755
6023.437500	-104.583313
6046.875000	-102.090248
6070.312500	-94.703133
6093.750000	-90.164291
6117.187500	-92.176811
6140.625000	-98.649826
6164.062500	-98.617325
6187.500000	-96.123962
6210.937500	-97.698593
6234.375000	-97.088547
6257.812500	-99.594101
6281.250000	-97.647430
6304.687500	-97.023506
6328.125000	-99.641006
6351.562500	-102.009705
6375.000000	-98.651970
6398.437500	-100.651062
6421.875000	-104.875572
6445.312500	-103.264915
6468.750000	-99.637611
6492.187500	-98.387421
6515.625000	-98.866386
6539.062500	-102.610870
6562.500000	-100.561005
6585.937500	-97.442574
6609.375000	-93.959068
6632.812500	-96.269775
6656.250000	-102.461250
6679.687500	-100.992973
6703.125000	-102.434135
6726.562500	-103.934303
6750.000000	-103.772011
6773.437500	-102.462036
6796.875000	-102.726212
6820.312500	-102.552345
6843.750000	-106.136452
6867.187500	-107.495377
6890.625000	-102.546455
6914.062500	-100.936539
6937.500000	-103.907127
6960.937500	-104.081779
6984.375000	-100.420479
7007.812500	-98.373802
7031.250000	-93.823463
7054.687500	-96.840073
7078.125000	-107.166557
7101.562500	-106.497566
7125.000000	-105.644066
7148.437500	-106.593033
7171.875000	-110.029221
7195.312500	-106.287346
7218.750000	-105.196106
7242.187500	-107.654419
7265.625000	-105.849525
7289.062500	-108.273438
7312.500000	-112.337639
7335.937500	-109.685005
7359.375000	-109.311424
7382.812500	-111.368118
7406.250000	-107.984627
7429.687500	-107.492966
7453.125000	-107.313942
7476.562500	-102.023369
7500.000000	-97.654205
7523.437500	-94.765137
7546.875000	-97.547287
7570.312500	-106.248161
7593.750000	-109.268021
7617.187500	-108.431152
7640.625000	-108.832344
7664.062500	-106.011032
7687.500000	-102.806435
7710.937500	-107.004562
7734.375000	-109.707108
7757.812500	-107.062096
7781.250000	-108.218338
7804.687500	-109.448502
7828.125000	-106.948776
7851.562500	-98.019424
7875.000000	-97.585320
7898.437500	-106.499466
7921.875000	-111.078911
7945.312500	-110.562340
7968.750000	-106.290436
7992.187500	-102.488594
8015.625000	-102.286270
8039.062500	-107.101463
8062.500000	-106.732613
8085.937500	-105.959068
8109.375000	-107.116478
8132.812500	-111.864418
8156.250000	-114.388245
8179.687500	-113.959312
8203.125000	-114.333618
8226.562500	-113.845085
8250.000000	-107.239388
8273.437500	-106.290970
8296.875000	-110.960083
8320.312500	-107.907532
8343.750000	-107.737259
8367.187500	-109.241798
8390.625000	-111.342552
8414.062500	-113.606270
8437.500000	-109.008049
8460.937500	-108.723114
8484.375000	-111.555695
8507.812500	-105.180603
8531.250000	-102.721420
8554.687500	-103.468658
8578.125000	-106.101120
8601.562500	-111.570496
8625.000000	-113.554901
8648.437500	-114.718666
8671.875000	-114.019470
8695.312500	-115.031860
8718.750000	-114.011345
8742.187500	-112.593025
8765.625000	-114.254303
8789.062500	-115.225044
8812.500000	-114.748222
8835.937500	-113.701080
8859.375000	-111.780830
8882.812500	-109.710724
8906.250000	-110.943947
8929.687500	-113.675735
8953.125000	-113.900772
8976.562500	-109.235863
9000.000000	-102.954514
9023.437500	-102.554665
9046.875000	-104.483116
9070.312500	-106.668259
9093.750000	-108.510384
9117.187500	-109.261780
9140.625000	-110.318253
9164.062500	-114.755318
9187.500000	-116.013100
9210.937500	-116.184967
9234.375000	-115.402885
9257.812500	-115.045830
9281.250000	-114.581673
9304.687500	-114.012505
9328.125000	-115.667526
9351.562500	-115.268135
9375.000000	-111.392960
9398.437500	-107.041298
9421.875000	-105.702972
9445.312500	-105.919167
9468.750000	-109.017189
9492.187500	-112.517387
9515.625000	-113.074493
9539.062500	-114.893448
9562.500000	-115.348808
9585.937500	-113.227196
9609.375000	-112.814529
9632.812500	-112.263451
9656.250000	-114.257988
9679.687500	-116.237221
9703.125000	-115.166145
9726.562500	-115.470253
9750.000000	-116.721901
9773.437500	-115.431808
9796.875000	-116.347466
9820.312500	-115.402733
9843.750000	-112.663429
9867.187500	-111.882362
9890.625000	-114.642479
9914.062500	-116.889740
9937.500000	-115.726151
9960.937500	-114.493004
9984.375000	-111.770538
10007.812500	-108.025238
10031.250000	-103.607620
10054.687500	-103.505600
10078.125000	-105.721504
10101.562500	-109.364227
10125.000000	-111.158012
10148.437500	-111.920166
10171.875000	-113.324913
10195.312500	-114.815796
10218.750000	-116.904877
10242.187500	-115.073570
10265.625000	-113.495880
10289.062500	-114.515762
10312.500000	-114.311348
10335.937500	-114.635818
10359.375000	-115.719856
10382.812500	-113.557747
10406.250000	-111.431320
10429.687500	-106.575378
10453.125000	-106.988731
10476.562500	-111.506897
10500.000000	-113.555115
10523.437500	-114.267860
10546.875000	-116.240059
10570.312500	-114.149574
10593.750000	-114.896034
10617.187500	-118.390701
10640.625000	-118.710564
10664.062500	-118.111481
10687.500000	-117.680618
10710.937500	-115.212433
10734.375000	-112.802162
10757.812500	-111.989754
10781.250000	-113.414635
10804.687500	-117.152985
10828.125000	-117.865250
10851.562500	-119.294479
10875.000000	-119.833221
10898.437500	-118.882462
10921.875000	-118.987335
10945.312500	-119.588539
10968.750000	-120.834900
10992.187500	-119.878571
11015.625000	-117.821510
11039.062500	-118.301170
11062.500000	-119.190414
11085.937500	-118.161079
11109.375000	-116.403793
11132.812500	-116.152336
11156.250000	-115.593719
11179.687500	-113.649361
11203.125000	-111.522156
11226.562500	-110.997589
11250.000000	-114.993439
11273.437500	-117.636322
11296.875000	-121.163445
11320.312500	-119.568741
11343.750000	-117.361473
11367.187500	-118.327995
11390.625000	-117.828773
11414.062500	-118.892761
11437.500000	-117.931549
11460.937500	-117.774803
11484.375000	-118.299820
11507.812500	-118.696579
11531.250000	-121.087402
11554.687500	-121.772232
11578.125000	-121.351028
11601.562500	-119.671425
11625.000000	-120.109428
11648.437500	-121.174721
11671.875000	-120.164612
11695.312500	-120.786133
11718.750000	-119.638306
11742.187500	-119.050613
11765.625000	-121.264854
11789.062500	-121.902565
11812.500000	-122.751762
11835.937500	-122.560890
11859.375000	-121.963089
11882.812500	-121.107101
11906.250000	-118.943497
11929.687500	-119.006119
11953.125000	-122.048317
11976.562500	-123.338432
12000.000000	-123.257713
12023.437500	-122.270401
12046.875000	-122.141701
12070.312500	-122.250404
12093.750000	-121.976845
12117.187500	-123.329506
12140.625000	-123.317818
12164.062500	-121.433975
12187.500000	-120.602776
12210.937500	-119.555763
12234.375000	-115.931755
12257.812500	-114.854233
12281.250000	-118.834953
12304.687500	-119.709320
12328.125000	-119.601067
12351.562500	-122.245033
12375.000000	-122.679138
12398.437500	-122.453125
12421.875000	-122.662079
12445.312500	-123.850853
12468.750000	-123.605751
12492.187500	-123.309990
12515.625000	-123.512962
12539.062500	-124.427177
12562.500000	-124.511192
12585.937500	-122.720612
12609.375000	-121.783173
12632.812500	-121.888031
12656.250000	-121.256714
12679.687500	-122.392624
12703.125000	-123.360458
12726.562500	-122.450371
12750.000000	-123.966370
12773.437500	-124.310104
12796.875000	-123.742882
12820.312500	-122.167068
12843.750000	-121.738396
12867.187500	-123.639915
12890.625000	-124.680771
12914.062500	-124.364960
12937.500000	-123.961433
12960.937500	-122.977180
12984.375000	-123.916084
13007.812500	-124.587982
13031.250000	-124.665771
13054.687500	-125.440384
13078.125000	-124.552406
13101.562500	-123.948639
13125.000000	-123.875420
13148.437500	-123.461899
13171.875000	-122.793045
13195.312500	-121.772949
13218.750000	-122.627930
13242.187500	-123.138077
13265.625000	-123.359474
13289.062500	-123.579102
13312.500000	-124.501793
13335.937500	-124.889084
13359.375000	-125.057358
13382.812500	-124.389656
13406.250000	-124.126144
13429.687500	-123.355690
13453.125000	-121.590889
13476.562500	-119.416740
13500.000000	-120.595619
13523.437500	-121.894203
13546.875000	-123.540604
13570.312500	-124.266754
13593.750000	-125.596710
13617.187500	-125.871803
13640.625000	-125.725861
13664.062500	-123.452919
13687.500000	-121.751694
13710.937500	-122.722420
13734.375000	-124.691422
13757.812500	-125.829445
13781.250000	-126.328079
13804.687500	-125.693092
13828.125000	-125.591812
13851.562500	-125.745316
13875.000000	-126.051193
13898.437500	-126.293503
13921.875000	-126.271759
13945.312500	-126.256378
13968.750000	-126.090675
13992.187500	-126.200638
14015.625000	-126.021790
14039.062500	-125.691238
14062.500000	-125.801437
14085.937500	-125.548233
14109.375000	-125.131340
14132.812500	-125.249802
14156.250000	-125.615913
14179.687500	-125.846321
14203.125000	-126.026657
14226.562500	-125.551445
14250.000000	-125.249420
14273.437500	-125.508186
14296.875000	-126.012909
14320.312500	-126.275917
14343.750000	-126.127205
14367.187500	-125.933540
14390.625000	-126.383690
14414.062500	-126.752785
14437.500000	-126.453941
14460.937500	-126.006180
14484.375000	-126.072914
14507.812500	-126.458420
14531.250000	-124.833382
14554.687500	-124.895378
14578.125000	-126.011810
14601.562500	-126.294655
14625.000000	-126.488724
14648.437500	-125.356712
14671.875000	-123.090805
14695.312500	-122.284317
14718.750000	-123.096695
14742.187500	-123.864586
14765.625000	-124.650162
14789.062500	-125.940765
14812.500000	-126.001312
14835.937500	-125.830505
14859.375000	-125.697823
14882.812500	-125.713341
14906.250000	-126.417572
14929.687500	-126.672882
14953.125000	-126.523239
14976.562500	-126.259796
15000.000000	-126.010330
15023.437500	-125.584213
15046.875000	-125.181480
15070.312500	-125.036888
15093.750000	-125.531281
15117.187500	-125.625061
15140.625000	-125.453743
15164.062500	-126.107170
15187.500000	-126.477654
15210.937500	-126.640495
15234.375000	-127.044510
15257.812500	-126.937805
15281.250000	-127.115570
15304.687500	-127.284973
15328.125000	-127.435226
15351.562500	-127.476074
15375.000000	-127.246742
15398.437500	-127.245056
15421.875000	-127.021835
15445.312500	-126.604523
15468.750000	-126.347031
15492.187500	-126.724159
15515.625000	-127.292030
15539.062500	-127.244972
15562.500000	-126.880638
15585.937500	-126.693062
15609.375000	-126.456169
15632.812500	-126.101517
15656.250000	-126.136833
15679.687500	-125.935402
15703.125000	-126.205078
15726.562500	-126.327080
15750.000000	-126.484047
15773.437500	-126.460442
15796.875000	-126.358727
15820.312500	-126.606529
15843.750000	-126.973938
15867.187500	-126.924294
15890.625000	-126.478981
15914.062500	-125.959778
15937.500000	-125.295921
15960.937500	-124.256317
15984.375000	-123.564178
16007.812500	-123.863533
16031.250000	-125.023293
16054.687500	-125.762802
16078.125000	-126.640427
16101.562500	-127.067085
16125.000000	-127.240005
16148.437500	-127.290115
16171.875000	-127.267502
16195.312500	-127.198624
16218.750000	-127.417038
16242.187500	-127.524033
16265.625000	-127.409409
16289.062500	-127.212799
16312.500000	-127.429321
16335.937500	-127.514488
16359.375000	-127.451462
16382.812500	-127.340424
16406.250000	-127.386520
16429.687500	-127.330772
16453.125000	-127.422630
16476.562500	-127.573006
16500.000000	-127.407249
16523.437500	-127.424500
16546.875000	-127.381126
16570.312500	-127.220268
16593.750000	-127.137276
16617.187500	-127.014336
16640.625000	-126.856865
16664.062500	-127.085449
16687.500000	-127.424339
16710.937500	-127.457298
16734.375000	-127.557594
16757.812500	-127.728096
16781.250000	-127.664825
16804.687500	-127.600235
16828.125000	-127.594292
16851.562500	-127.435730
16875.000000	-127.494904
16898.437500	-127.730888
16921.875000	-127.680389
16945.312500	-127.546860
16968.750000	-127.645744
16992.187500	-127.588120
17015.625000	-127.210709
17039.062500	-126.897011
17062.500000	-126.557083
17085.937500	-126.949913
17109.375000	-127.377556
17132.812500	-127.353256
17156.250000	-127.231979
17179.687500	-126.969414
17203.125000	-126.406097
17226.562500	-125.702431
17250.000000	-125.004013
17273.437500	-124.210716
17296.875000	-124.977394
17320.312500	-126.766747
17343.750000	-127.549278
17367.187500	-127.834587
17390.625000	-127.977203
17414.062500	-127.981255
17437.500000	-127.989410
17460.937500	-127.933899
17484.375000	-128.015533
17507.812500	-127.912086
17531.250000	-127.892929
17554.687500	-127.751793
17578.125000	-127.770775
17601.562500	-127.921066
17625.000000	-127.853371
17648.437500	-127.989265
17671.875000	-127.994019
17695.312500	-128.000076
17718.750000	-127.996933
17742.187500	-127.981476
17765.625000	-127.816719
17789.062500	-127.737083
17812.500000	-127.798340
17835.937500	-127.853493
17859.375000	-127.901321
17882.812500	-127.947968
17906.250000	-127.905724
17929.687500	-127.983780
17953.125000	-127.915413
17976.562500	-127.756966
18000.000000	-127.332626
18023.437500	-127.625526
18046.875000	-127.804199
18070.312500	-127.782707
18093.750000	-127.879860
18117.187500	-127.920853
18140.625000	-127.927773
18164.062500	-127.852127
18187.500000	-127.856239
18210.937500	-127.896088
18234.375000	-127.976547
18257.812500	-128.006531
18281.250000	-127.983665
18304.687500	-127.851669
18328.125000	-127.947830
18351.562500	-127.998970
18375.000000	-127.919220
18398.437500	-127.877594
18421.875000	-127.844582
18445.312500	-127.856201
18468.750000	-127.714569
18492.187500	-127.480881
18515.625000	-127.420067
18539.062500	-127.424324
18562.500000	-127.238914
18585.937500	-126.858711
18609.375000	-127.040222
18632.812500	-127.435539
18656.250000	-127.797287
18679.687500	-127.966064
