주파수 (Hz)	레벨 (dB)
23.437500	-89.821968
46.875000	-77.440697
70.312500	-61.196934
93.750000	-53.182682
117.187500	-48.710899
140.625000	-47.396389
164.062500	-50.329594
187.500000	-48.596756
210.937500	-48.490211
234.375000	-46.582710
257.812500	-42.099861
281.250000	-43.863503
304.687500	-42.703503
328.125000	-43.622932
351.562500	-44.751575
375.000000	-46.344837
398.437500	-44.355831
421.875000	-41.897984
445.312500	-42.039341
468.750000	-43.037308
492.187500	-44.088943
515.625000	-39.625458
539.062500	-40.442780
562.500000	-48.087383
585.937500	-47.651096
609.375000	-40.382210
632.812500	-38.638638
656.250000	-47.416779
679.687500	-47.589676
703.125000	-43.317745
726.562500	-46.665459
750.000000	-47.885696
773.437500	-46.996349
796.875000	-46.181339
820.312500	-42.588638
843.750000	-41.579659
867.187500	-50.433578
890.625000	-53.347813
914.062500	-56.374641
937.500000	-53.361565
960.937500	-55.085789
984.375000	-50.546925
1007.812500	-52.527031
1031.250000	-47.749977
1054.687500	-44.232224
1078.125000	-50.553005
1101.562500	-55.786701
1125.000000	-59.572849
1148.437500	-60.793846
1171.875000	-52.682049
1195.312500	-52.429016
1218.750000	-57.832508
1242.187500	-48.742859
1265.625000	-48.869129
1289.062500	-57.244247
1312.500000	-53.571541
1335.937500	-54.166088
1359.375000	-59.417786
1382.812500	-54.404083
1406.250000	-53.384453
1429.687500	-58.094830
1453.125000	-60.044899
1476.562500	-56.114964
1500.000000	-55.962006
1523.437500	-64.108131
1546.875000	-61.384464
1570.312500	-53.663021
1593.750000	-54.456306
1617.187500	-63.711670
1640.625000	-59.365807
1664.062500	-51.241177
1687.500000	-53.093887
1710.937500	-63.439880
1734.375000	-62.154835
1757.812500	-60.123917
1781.250000	-60.082375
1804.687500	-66.118416
1828.125000	-66.643005
1851.562500	-63.233582
1875.000000	-57.739006
1898.437500	-58.254700
1921.875000	-65.583748
1945.312500	-66.246552
1968.750000	-58.039619
1992.187500	-57.842987
2015.625000	-66.269325
2039.062500	-70.961823
2062.500000	-68.915840
2085.937500	-61.957912
2109.375000	-56.441479
2132.812500	-57.892994
2156.250000	-67.671959
2179.687500	-69.712540
2203.125000	-65.038086
2226.562500	-64.840607
2250.000000	-67.069283
2273.437500	-73.771454
2296.875000	-74.867760
2320.312500	-69.545685
2343.750000	-65.452621
2367.187500	-60.109577
2390.625000	-59.486492
2414.062500	-68.140488
2437.500000	-73.443741
2460.937500	-67.489754
2484.375000	-63.039612
2507.812500	-61.481285
2531.250000	-60.094036
2554.687500	-67.329185
2578.125000	-76.535820
2601.562500	-76.508560
2625.000000	-73.924194
2648.437500	-66.136772
2671.875000	-64.415977
2695.312500	-71.081261
2718.750000	-75.787697
2742.187500	-68.924446
2765.625000	-66.833412
2789.062500	-65.790756
2812.500000	-65.186867
2835.937500	-61.273636
2859.375000	-64.617287
2882.812500	-74.554459
2906.250000	-79.503487
2929.687500	-79.192299
2953.125000	-73.199181
2976.562500	-70.699951
3000.000000	-69.617615
3023.437500	-70.741211
3046.875000	-75.111145
3070.312500	-79.192841
3093.750000	-74.841049
3117.187500	-76.051117
3140.625000	-74.629341
3164.062500	-68.461456
3187.500000	-66.148041
3210.937500	-65.214806
3234.375000	-70.437347
3257.812500	-80.324181
3281.250000	-75.585281
3304.687500	-75.735954
3328.125000	-76.153984
3351.562500	-74.597733
3375.000000	-74.548714
3398.437500	-73.098877
3421.875000	-73.948128
3445.312500	-79.984138
3468.750000	-80.757988
3492.187500	-76.794609
3515.625000	-76.833710
3539.062500	-74.346916
3562.500000	-72.337959
3585.937500	-70.754921
3609.375000	-71.028381
3632.812500	-74.376854
3656.250000	-80.332382
3679.687500	-80.909531
3703.125000	-78.140984
3726.562500	-78.772293
3750.000000	-67.671959
3773.437500	-63.646755
3796.875000	-69.409233
3820.312500	-67.916748
3843.750000	-66.824280
3867.187500	-70.898827
3890.625000	-78.718117
3914.062500	-82.963524
3937.500000	-82.087601
3960.937500	-79.860580
3984.375000	-79.230133
4007.812500	-77.460236
4031.250000	-78.204750
4054.687500	-77.404938
4078.125000	-76.683723
4101.562500	-80.289246
4125.000000	-84.696884
4148.437500	-87.363464
4171.875000	-83.431313
4195.312500	-79.324501
4218.750000	-78.766472
4242.187500	-74.234459
4265.625000	-74.833672
4289.062500	-76.941841
4312.500000	-75.420135
4335.937500	-75.632500
4359.375000	-77.824181
4382.812500	-83.392914
4406.250000	-86.106911
4429.687500	-85.034378
4453.125000	-85.983810
4476.562500	-79.440742
4500.000000	-77.921570
4523.437500	-81.989960
4546.875000	-80.058937
4570.312500	-81.427559
4593.750000	-82.110085
4617.187500	-82.300514
4640.625000	-83.641945
4664.062500	-83.820213
4687.500000	-87.144867
4710.937500	-88.428543
4734.375000	-83.706512
4757.812500	-82.368111
4781.250000	-85.396896
4804.687500	-85.596016
4828.125000	-81.918571
4851.562500	-80.162186
4875.000000	-81.775627
4898.437500	-81.904701
4921.875000	-82.638794
4945.312500	-82.989594
4968.750000	-90.109505
4992.187500	-94.063202
5015.625000	-92.143448
5039.062500	-87.106110
5062.500000	-81.345276
5085.937500	-81.561440
5109.375000	-82.585854
5132.812500	-75.613060
5156.250000	-73.895317
5179.687500	-76.026497
5203.125000	-82.049492
5226.562500	-89.942940
5250.000000	-85.277916
5273.437500	-85.932167
5296.875000	-91.845642
5320.312500	-95.484512
5343.750000	-90.506599
5367.187500	-85.067741
5390.625000	-85.231964
5414.062500	-88.589912
5437.500000	-89.639305
5460.937500	-92.361305
5484.375000	-87.808434
5507.812500	-87.341881
5531.250000	-89.745392
5554.687500	-86.873154
5578.125000	-90.280441
5601.562500	-90.582626
5625.000000	-88.983406
5648.437500	-94.333122
5671.875000	-92.940468
5695.312500	-88.062843
5718.750000	-85.046326
5742.187500	-84.855270
5765.625000	-88.557007
5789.062500	-96.210152
5812.500000	-90.840477
5835.937500	-86.990776
5859.375000	-88.791397
5882.812500	-93.541061
5906.250000	-92.047455
5929.687500	-89.749634
5953.125000	-93.702003
5976.562500	-96.504814
6000.000000	-96.787735
6023.437500	-98.770561
6046.875000	-98.108864
6070.312500	-89.499771
6093.750000	-85.388008
6117.187500	-87.260323
6140.625000	-90.503807
6164.062500	-90.699287
6187.500000	-86.360168
6210.937500	-86.711266
6234.375000	-90.835876
6257.812500	-95.452370
6281.250000	-92.980865
6304.687500	-94.036270
6328.125000	-97.036591
6351.562500	-94.203972
6375.000000	-91.205818
6398.437500	-94.753014
6421.875000	-100.996246
6445.312500	-99.679314
6468.750000	-93.865143
6492.187500	-90.247711
6515.625000	-90.538010
6539.062500	-93.051804
6562.500000	-94.039970
6585.937500	-89.794037
6609.375000	-86.795258
6632.812500	-90.646271
6656.250000	-98.012886
6679.687500	-93.167107
6703.125000	-92.761086
6726.562500	-91.113121
6750.000000	-89.783676
6773.437500	-94.122353
6796.875000	-94.366447
6820.312500	-88.363235
6843.750000	-91.006348
6867.187500	-101.818832
6890.625000	-100.705399
6914.062500	-94.666824
6937.500000	-92.377174
6960.937500	-92.881973
6984.375000	-89.850090
7007.812500	-87.790154
7031.250000	-85.983063
7054.687500	-88.848579
7078.125000	-93.630981
7101.562500	-95.922768
7125.000000	-91.575882
7148.437500	-92.307663
7171.875000	-98.280579
7195.312500	-99.364761
7218.750000	-99.632805
7242.187500	-98.326187
7265.625000	-94.002731
7289.062500	-94.001358
7312.500000	-94.988312
7335.937500	-94.900024
7359.375000	-98.290474
7382.812500	-99.537086
7406.250000	-95.538597
7429.687500	-94.484444
7453.125000	-94.338776
7476.562500	-91.315773
7500.000000	-89.961555
7523.437500	-89.605858
7546.875000	-92.349556
7570.312500	-93.912170
7593.750000	-97.912956
7617.187500	-100.886528
7640.625000	-102.168739
7664.062500	-103.759010
7687.500000	-104.115494
7710.937500	-101.360962
7734.375000	-99.732948
7757.812500	-100.533020
7781.250000	-99.326698
7804.687500	-99.107071
7828.125000	-98.987663
7851.562500	-96.354736
7875.000000	-96.600693
7898.437500	-101.547058
7921.875000	-100.386314
7945.312500	-99.897049
7968.750000	-96.847610
7992.187500	-91.988052
8015.625000	-88.090446
8039.062500	-91.646477
8062.500000	-94.575607
8085.937500	-92.944672
8109.375000	-94.777618
8132.812500	-101.669098
8156.250000	-104.472939
8179.687500	-104.789825
8203.125000	-104.613228
8226.562500	-104.442177
8250.000000	-102.217293
8273.437500	-100.692551
8296.875000	-100.662628
8320.312500	-93.922691
8343.750000	-94.260124
8367.187500	-101.267822
8390.625000	-103.948288
8414.062500	-99.893578
8437.500000	-96.201424
8460.937500	-97.441872
8484.375000	-99.517372
8507.812500	-101.495888
8531.250000	-104.246170
8554.687500	-106.129433
8578.125000	-106.345085
8601.562500	-107.688194
8625.000000	-108.729691
8648.437500	-108.111397
8671.875000	-107.175201
8695.312500	-104.889732
8718.750000	-104.246101
8742.187500	-104.393608
8765.625000	-105.025436
8789.062500	-105.693817
8812.500000	-105.430969
8835.937500	-105.297379
8859.375000	-104.641022
8882.812500	-100.725334
8906.250000	-99.405045
8929.687500	-104.336731
8953.125000	-108.487038
8976.562500	-105.416519
9000.000000	-100.532669
9023.437500	-97.144402
9046.875000	-99.503342
9070.312500	-102.340515
9093.750000	-101.187538
9117.187500	-101.138489
9140.625000	-104.204033
9164.062500	-107.427597
9187.500000	-107.349632
9210.937500	-108.179268
9234.375000	-109.211136
9257.812500	-110.864693
9281.250000	-111.178558
9304.687500	-110.055786
9328.125000	-109.394287
9351.562500	-107.747330
9375.000000	-103.724747
9398.437500	-103.181252
9421.875000	-102.585548
9445.312500	-103.372429
9468.750000	-105.269615
9492.187500	-107.287262
9515.625000	-108.012306
9539.062500	-109.294235
9562.500000	-109.615471
9585.937500	-109.465431
9609.375000	-108.076210
9632.812500	-108.816109
9656.250000	-110.189949
9679.687500	-107.770645
9703.125000	-105.600899
9726.562500	-108.002777
9750.000000	-111.302109
9773.437500	-111.969940
9796.875000	-111.263435
9820.312500	-112.304970
9843.750000	-111.732582
9867.187500	-111.779037
9890.625000	-113.032593
9914.062500	-113.046173
9937.500000	-111.563919
9960.937500	-109.078239
9984.375000	-107.932465
10007.812500	-105.256004
10031.250000	-101.436516
10054.687500	-102.391861
10078.125000	-102.943542
10101.562500	-104.128487
10125.000000	-106.121223
10148.437500	-108.052444
10171.875000	-108.574234
10195.312500	-108.492584
10218.750000	-108.765343
10242.187500	-109.644897
10265.625000	-107.876205
10289.062500	-105.200073
10312.500000	-106.191322
10335.937500	-107.511742
10359.375000	-107.704170
10382.812500	-108.662453
10406.250000	-103.820709
10429.687500	-101.721001
10453.125000	-104.529816
10476.562500	-107.598511
10500.000000	-106.852135
10523.437500	-105.814575
10546.875000	-106.556038
10570.312500	-108.365219
10593.750000	-111.618423
10617.187500	-113.994400
10640.625000	-115.440933
10664.062500	-116.613991
10687.500000	-116.626297
10710.937500	-114.831215
10734.375000	-113.932625
10757.812500	-114.134659
10781.250000	-114.930550
10804.687500	-115.035744
10828.125000	-112.430077
10851.562500	-114.463783
10875.000000	-115.211166
10898.437500	-112.779655
10921.875000	-112.768753
10945.312500	-110.545670
10968.750000	-110.779175
10992.187500	-113.114883
11015.625000	-114.070511
11039.062500	-114.239594
11062.500000	-115.177383
11085.937500	-115.245132
11109.375000	-112.876945
11132.812500	-113.281853
11156.250000	-114.080055
11179.687500	-112.532951
11203.125000	-111.414734
11226.562500	-111.472679
11250.000000	-111.770813
11273.437500	-114.483101
11296.875000	-117.505173
11320.312500	-115.977020
11343.750000	-114.110107
11367.187500	-114.763512
11390.625000	-115.049568
11414.062500	-113.831978
11437.500000	-111.735504
11460.937500	-113.419022
11484.375000	-115.216644
11507.812500	-114.266212
11531.250000	-115.195419
11554.687500	-115.733139
11578.125000	-115.193993
11601.562500	-115.860367
11625.000000	-116.116539
11648.437500	-115.488396
11671.875000	-114.358353
11695.312500	-113.502083
11718.750000	-113.689690
11742.187500	-112.717834
11765.625000	-112.484505
11789.062500	-111.475548
11812.500000	-114.183792
11835.937500	-116.439644
11859.375000	-116.087837
11882.812500	-113.503136
11906.250000	-111.369125
11929.687500	-113.349419
11953.125000	-116.103149
11976.562500	-115.823654
12000.000000	-114.329453
12023.437500	-116.372253
12046.875000	-115.799416
12070.312500	-114.828537
12093.750000	-114.864349
12117.187500	-115.575287
12140.625000	-115.985062
12164.062500	-116.035095
12187.500000	-115.562881
12210.937500	-114.787773
12234.375000	-111.963722
12257.812500	-110.487862
12281.250000	-110.907654
12304.687500	-108.071434
12328.125000	-110.693939
12351.562500	-113.974655
12375.000000	-112.358910
12398.437500	-114.414787
12421.875000	-116.752975
12445.312500	-116.615211
12468.750000	-116.725777
12492.187500	-117.155701
12515.625000	-117.105240
12539.062500	-117.053154
12562.500000	-116.578568
12585.937500	-116.237427
12609.375000	-115.970558
12632.812500	-115.457657
12656.250000	-115.870689
12679.687500	-115.571068
12703.125000	-115.541847
12726.562500	-115.210060
12750.000000	-115.140633
12773.437500	-114.878647
12796.875000	-115.700562
12820.312500	-115.713638
12843.750000	-116.654068
12867.187500	-117.026169
12890.625000	-117.025665
12914.062500	-117.398178
12937.500000	-117.434769
12960.937500	-117.036484
12984.375000	-117.607491
13007.812500	-117.301750
13031.250000	-117.702797
13054.687500	-118.248070
13078.125000	-117.903519
13101.562500	-117.931526
13125.000000	-117.147942
13148.437500	-116.942757
13171.875000	-116.946518
13195.312500	-116.122459
13218.750000	-116.315422
13242.187500	-116.567688
13265.625000	-116.977692
13289.062500	-117.008224
13312.500000	-116.595688
13335.937500	-115.607094
13359.375000	-114.468910
13382.812500	-114.238197
13406.250000	-113.468872
13429.687500	-112.285965
13453.125000	-112.183914
13476.562500	-112.986450
13500.000000	-112.587074
13523.437500	-111.561295
13546.875000	-114.340530
13570.312500	-117.285690
13593.750000	-117.324699
13617.187500	-115.958138
13640.625000	-115.983063
13664.062500	-115.552032
13687.500000	-115.495094
13710.937500	-116.041534
13734.375000	-116.954063
13757.812500	-117.579193
13781.250000	-117.953117
13804.687500	-118.324959
13828.125000	-118.508904
13851.562500	-117.994385
13875.000000	-118.353477
13898.437500	-117.371613
13921.875000	-115.982895
13945.312500	-117.130692
13968.750000	-118.145203
13992.187500	-118.814949
14015.625000	-118.023285
14039.062500	-117.444427
14062.500000	-117.592148
14085.937500	-114.858299
14109.375000	-115.003899
14132.812500	-117.690659
14156.250000	-118.259750
14179.687500	-118.905884
14203.125000	-119.153748
14226.562500	-119.508224
14250.000000	-119.560463
14273.437500	-119.668739
14296.875000	-119.846863
14320.312500	-119.825996
14343.750000	-119.587418
14367.187500	-119.170738
14390.625000	-119.066544
14414.062500	-119.303864
14437.500000	-119.560043
14460.937500	-119.860535
14484.375000	-120.103073
14507.812500	-120.055038
14531.250000	-119.940788
14554.687500	-120.241791
14578.125000	-120.026627
14601.562500	-119.972717
14625.000000	-119.950661
14648.437500	-118.392464
14671.875000	-115.504158
14695.312500	-115.719002
14718.750000	-116.646584
14742.187500	-116.174683
14765.625000	-116.996849
14789.062500	-118.831024
14812.500000	-119.981491
14835.937500	-120.199585
14859.375000	-120.125420
14882.812500	-118.499580
14906.250000	-118.101379
14929.687500	-119.657768
14953.125000	-120.033348
14976.562500	-119.698807
15000.000000	-118.785431
15023.437500	-119.644539
15046.875000	-120.174522
15070.312500	-119.970657
15093.750000	-120.439835
15117.187500	-120.820267
15140.625000	-120.690712
15164.062500	-120.475021
15187.500000	-120.324654
15210.937500	-120.424232
15234.375000	-120.547600
15257.812500	-120.257439
15281.250000	-120.119667
15304.687500	-120.341949
15328.125000	-120.895226
15351.562500	-121.127159
15375.000000	-120.923935
15398.437500	-120.734810
15421.875000	-120.618690
15445.312500	-120.529312
15468.750000	-120.112511
15492.187500	-120.222260
15515.625000	-120.858589
15539.062500	-120.832054
15562.500000	-120.883598
15585.937500	-121.265396
15609.375000	-121.401039
15632.812500	-121.359131
15656.250000	-121.054008
15679.687500	-120.619102
15703.125000	-120.526184
15726.562500	-120.385841
15750.000000	-120.550514
15773.437500	-120.632996
15796.875000	-120.762596
15820.312500	-121.031250
15843.750000	-121.191330
15867.187500	-121.377762
15890.625000	-120.965973
15914.062500	-120.014809
15937.500000	-118.560089
15960.937500	-115.438713
15984.375000	-116.063889
16007.812500	-119.099190
16031.250000	-120.487564
16054.687500	-120.950188
16078.125000	-121.431152
16101.562500	-121.345772
16125.000000	-121.549454
16148.437500	-122.087326
16171.875000	-122.051498
16195.312500	-122.046867
16218.750000	-121.919533
16242.187500	-121.772232
16265.625000	-121.650635
16289.062500	-121.665077
16312.500000	-121.812088
16335.937500	-121.833229
16359.375000	-121.945381
16382.812500	-121.933388
16406.250000	-121.787682
16429.687500	-121.907692
16453.125000	-122.001198
16476.562500	-121.758934
16500.000000	-120.673325
16523.437500	-121.470398
16546.875000	-121.880356
16570.312500	-121.901321
16593.750000	-121.988007
16617.187500	-122.185005
16640.625000	-122.107101
16664.062500	-122.121040
16687.500000	-122.116356
16710.937500	-122.160286
16734.375000	-122.358009
16757.812500	-122.196587
16781.250000	-121.886169
16804.687500	-121.420189
16828.125000	-121.033310
16851.562500	-121.256790
16875.000000	-121.661934
16898.437500	-121.541809
16921.875000	-121.396515
16945.312500	-121.742661
16968.750000	-122.089455
16992.187500	-121.990601
17015.625000	-121.777161
17039.062500	-122.081398
17062.500000	-122.417328
17085.937500	-122.571587
17109.375000	-122.607262
17132.812500	-122.610512
17156.250000	-122.591187
17179.687500	-122.581223
17203.125000	-121.961792
17226.562500	-121.249199
17250.000000	-121.925865
17273.437500	-122.419815
17296.875000	-122.221634
17320.312500	-122.469582
17343.750000	-122.686241
17367.187500	-122.717323
17390.625000	-122.660126
17414.062500	-122.650192
17437.500000	-122.686447
17460.937500	-122.712273
17484.375000	-122.804588
17507.812500	-122.783867
17531.250000	-122.881638
17554.687500	-122.804489
17578.125000	-122.722786
17601.562500	-122.738007
17625.000000	-122.877220
17648.437500	-122.992058
17671.875000	-122.847206
17695.312500	-122.710243
17718.750000	-122.749161
17742.187500	-122.726959
17765.625000	-122.809883
17789.062500	-122.760643
17812.500000	-122.761360
17835.937500	-122.986877
17859.375000	-122.898438
17882.812500	-122.896065
17906.250000	-122.929680
17929.687500	-122.925430
17953.125000	-122.820747
17976.562500	-122.315575
18000.000000	-121.080887
18023.437500	-122.345757
18046.875000	-122.911072
18070.312500	-122.935081
18093.750000	-122.870857
18117.187500	-122.969116
18140.625000	-123.002853
18164.062500	-122.993080
18187.500000	-122.879875
18210.937500	-122.975258
18234.375000	-123.042450
18257.812500	-122.953598
18281.250000	-122.956451
18304.687500	-123.121407
18328.125000	-123.164551
18351.562500	-123.106232
18375.000000	-123.017311
18398.437500	-122.940697
18421.875000	-122.911667
18445.312500	-122.857330
18468.750000	-122.919144
18492.187500	-122.978035
18515.625000	-122.951912
18539.062500	-122.569183
18562.500000	-122.350136
18585.937500	-122.176041
18609.375000	-122.386490
18632.812500	-122.492462
18656.250000	-122.629906
18679.687500	-122.733719
18703.125000	-122.934082
18726.562500	-122.908730
