주파수 (Hz)	레벨 (dB)
23.437500	-99.902473
46.875000	-85.202728
70.312500	-71.185188
93.750000	-64.677040
117.187500	-62.660709
140.625000	-60.292038
164.062500	-58.011345
187.500000	-53.995899
210.937500	-53.540627
234.375000	-53.660828
257.812500	-51.298683
281.250000	-53.274040
304.687500	-54.676662
328.125000	-54.190388
351.562500	-54.015652
375.000000	-50.834019
398.437500	-48.438965
421.875000	-52.392429
445.312500	-54.966892
468.750000	-52.671993
492.187500	-55.573601
515.625000	-51.558689
539.062500	-52.003510
562.500000	-55.660046
585.937500	-54.664066
609.375000	-55.223766
632.812500	-54.404114
656.250000	-50.550102
679.687500	-50.100319
703.125000	-48.235359
726.562500	-54.308140
750.000000	-66.086769
773.437500	-59.832939
796.875000	-58.157207
820.312500	-60.511017
843.750000	-61.125713
867.187500	-62.918198
890.625000	-61.765251
914.062500	-66.637978
937.500000	-66.464989
960.937500	-70.797646
984.375000	-67.554008
1007.812500	-68.705994
1031.250000	-63.483414
1054.687500	-59.628105
1078.125000	-65.586906
1101.562500	-72.444099
1125.000000	-74.118858
1148.437500	-72.805618
1171.875000	-62.617317
1195.312500	-63.146942
1218.750000	-71.279167
1242.187500	-63.831741
1265.625000	-64.274658
1289.062500	-72.753571
1312.500000	-70.563057
1335.937500	-70.612892
1359.375000	-73.129410
1382.812500	-66.541908
1406.250000	-63.307182
1429.687500	-68.099007
1453.125000	-73.652000
1476.562500	-71.899178
1500.000000	-74.298203
1523.437500	-77.381721
1546.875000	-74.225151
1570.312500	-67.491692
1593.750000	-68.192940
1617.187500	-76.982002
1640.625000	-76.714958
1664.062500	-70.727417
1687.500000	-70.651245
1710.937500	-77.608490
1734.375000	-79.429916
1757.812500	-72.678993
1781.250000	-70.484726
1804.687500	-76.876030
1828.125000	-79.300667
1851.562500	-73.945496
1875.000000	-70.333229
1898.437500	-71.743546
1921.875000	-79.744637
1945.312500	-81.114967
1968.750000	-74.558228
1992.187500	-72.004898
2015.625000	-76.084290
2039.062500	-84.448090
2062.500000	-80.241188
2085.937500	-75.634987
2109.375000	-71.403641
2132.812500	-73.594444
2156.250000	-82.853394
2179.687500	-82.053329
2203.125000	-79.945137
2226.562500	-78.829567
2250.000000	-77.738632
2273.437500	-83.196571
2296.875000	-87.013817
2320.312500	-84.722031
2343.750000	-82.189766
2367.187500	-74.657898
2390.625000	-73.463684
2414.062500	-82.153404
2437.500000	-87.426147
2460.937500	-86.119324
2484.375000	-82.213928
2507.812500	-78.097679
2531.250000	-76.004684
2554.687500	-83.045815
2578.125000	-87.317245
2601.562500	-84.253334
2625.000000	-86.674522
2648.437500	-82.792152
2671.875000	-79.154755
2695.312500	-81.731918
2718.750000	-87.701630
2742.187500	-87.221466
2765.625000	-84.547531
2789.062500	-81.184669
2812.500000	-78.318367
2835.937500	-74.419113
2859.375000	-78.108658
2882.812500	-86.670372
2906.250000	-90.675369
2929.687500	-86.647339
2953.125000	-80.243759
2976.562500	-79.190758
3000.000000	-77.482468
3023.437500	-79.398216
3046.875000	-88.502068
3070.312500	-88.987480
3093.750000	-84.161316
3117.187500	-84.614235
3140.625000	-84.190956
3164.062500	-82.983871
3187.500000	-78.299309
3210.937500	-79.977333
3234.375000	-86.453026
3257.812500	-94.781387
3281.250000	-92.940239
3304.687500	-91.188286
3328.125000	-89.426437
3351.562500	-88.208008
3375.000000	-87.961632
3398.437500	-88.814651
3421.875000	-89.725754
3445.312500	-93.679024
3468.750000	-94.612312
3492.187500	-89.799118
3515.625000	-92.030968
3539.062500	-91.582191
3562.500000	-88.742386
3585.937500	-88.408768
3609.375000	-87.916481
3632.812500	-88.847099
3656.250000	-91.564323
3679.687500	-96.433914
3703.125000	-96.353691
3726.562500	-99.827057
3750.000000	-90.414253
3773.437500	-85.380798
3796.875000	-88.197212
3820.312500	-89.849236
3843.750000	-89.502205
3867.187500	-92.498871
3890.625000	-99.552742
3914.062500	-104.183876
3937.500000	-100.432518
3960.937500	-96.483788
3984.375000	-89.182465
4007.812500	-88.156372
4031.250000	-94.397446
4054.687500	-94.144051
4078.125000	-91.278603
4101.562500	-92.850006
4125.000000	-98.346970
4148.437500	-100.498413
4171.875000	-100.613487
4195.312500	-96.032921
4218.750000	-91.707367
4242.187500	-87.102394
4265.625000	-87.572899
4289.062500	-88.469330
4312.500000	-88.811493
4335.937500	-86.742043
4359.375000	-88.882278
4382.812500	-96.968971
4406.250000	-102.484497
4429.687500	-101.395317
4453.125000	-99.914009
4476.562500	-94.535576
4500.000000	-94.516380
4523.437500	-98.312622
4546.875000	-97.915695
4570.312500	-99.609985
4593.750000	-97.386810
4617.187500	-97.811836
4640.625000	-98.443039
4664.062500	-97.786255
4687.500000	-96.100319
4710.937500	-98.675377
4734.375000	-95.703873
4757.812500	-92.661774
4781.250000	-95.206039
4804.687500	-102.609596
4828.125000	-102.368362
4851.562500	-98.440735
4875.000000	-96.018944
4898.437500	-96.984962
4921.875000	-93.724876
4945.312500	-93.195023
4968.750000	-97.303223
4992.187500	-99.876701
5015.625000	-106.822189
5039.062500	-98.329773
5062.500000	-90.116806
5085.937500	-92.430069
5109.375000	-102.523476
5132.812500	-97.668396
5156.250000	-95.326591
5179.687500	-97.974388
5203.125000	-101.523735
5226.562500	-100.504669
5250.000000	-100.825760
5273.437500	-103.618500
5296.875000	-107.515053
5320.312500	-105.588791
5343.750000	-103.005203
5367.187500	-100.884468
5390.625000	-102.028259
5414.062500	-102.315811
5437.500000	-100.749352
5460.937500	-101.791893
5484.375000	-101.134117
5507.812500	-103.238495
5531.250000	-104.079582
5554.687500	-100.243256
5578.125000	-100.639252
5601.562500	-105.199928
5625.000000	-106.547234
5648.437500	-110.710373
5671.875000	-108.897438
5695.312500	-104.854599
5718.750000	-101.046173
5742.187500	-103.519447
5765.625000	-105.962639
5789.062500	-107.078796
5812.500000	-101.093002
5835.937500	-93.956154
5859.375000	-94.940002
5882.812500	-101.232101
5906.250000	-104.976562
5929.687500	-105.639122
5953.125000	-102.155556
5976.562500	-101.694092
6000.000000	-108.560043
6023.437500	-110.959839
6046.875000	-110.654274
6070.312500	-105.506004
6093.750000	-103.746986
6117.187500	-107.850327
6140.625000	-109.315590
6164.062500	-100.857407
6187.500000	-98.185936
6210.937500	-103.298309
6234.375000	-109.797356
6257.812500	-107.161201
6281.250000	-102.097351
6304.687500	-103.190025
6328.125000	-106.258080
6351.562500	-107.590363
6375.000000	-103.538033
6398.437500	-105.391022
6421.875000	-110.209114
6445.312500	-110.960358
6468.750000	-107.147583
6492.187500	-105.793976
6515.625000	-106.442841
6539.062500	-107.812286
6562.500000	-104.907959
6585.937500	-100.263107
6609.375000	-98.991966
6632.812500	-102.663391
6656.250000	-107.536362
6679.687500	-103.665520
6703.125000	-105.561829
6726.562500	-106.391296
6750.000000	-103.860039
6773.437500	-103.739532
6796.875000	-107.791168
6820.312500	-105.754433
6843.750000	-110.244019
6867.187500	-116.473503
6890.625000	-112.121841
6914.062500	-111.996674
6937.500000	-115.510757
6960.937500	-113.970650
6984.375000	-110.968956
7007.812500	-109.149414
7031.250000	-106.029572
7054.687500	-108.778503
7078.125000	-116.889420
7101.562500	-117.654915
7125.000000	-112.131714
7148.437500	-109.394958
7171.875000	-112.926384
7195.312500	-114.357681
7218.750000	-114.704407
7242.187500	-116.882904
7265.625000	-115.205215
7289.062500	-116.718063
7312.500000	-118.552429
7335.937500	-115.533325
7359.375000	-114.378448
7382.812500	-108.522476
7406.250000	-106.433372
7429.687500	-111.720383
7453.125000	-112.977959
7476.562500	-105.633385
7500.000000	-102.025414
7523.437500	-101.627670
7546.875000	-105.448097
7570.312500	-113.258217
7593.750000	-114.296738
7617.187500	-114.440887
7640.625000	-114.468750
7664.062500	-112.175301
7687.500000	-109.951263
7710.937500	-112.529678
7734.375000	-113.889565
7757.812500	-114.172516
7781.250000	-113.583984
7804.687500	-113.592628
7828.125000	-111.135689
7851.562500	-106.441536
7875.000000	-108.006454
7898.437500	-116.002937
7921.875000	-116.828407
7945.312500	-116.887390
7968.750000	-117.195511
7992.187500	-116.546341
8015.625000	-116.584648
8039.062500	-118.646599
8062.500000	-117.037155
8085.937500	-116.613731
8109.375000	-116.894157
8132.812500	-118.412262
8156.250000	-117.608154
8179.687500	-116.436989
8203.125000	-117.912155
8226.562500	-119.605141
8250.000000	-115.622322
8273.437500	-114.861198
8296.875000	-117.383453
8320.312500	-114.027573
8343.750000	-113.223137
8367.187500	-114.111801
8390.625000	-117.306145
8414.062500	-119.733047
8437.500000	-116.853127
8460.937500	-116.578613
8484.375000	-118.795227
8507.812500	-114.372070
8531.250000	-111.916100
8554.687500	-112.056168
8578.125000	-114.658081
8601.562500	-118.905258
8625.000000	-120.763931
8648.437500	-120.736992
8671.875000	-121.090698
8695.312500	-121.770744
8718.750000	-120.495216
8742.187500	-118.481110
8765.625000	-118.352112
8789.062500	-117.345772
8812.500000	-118.051170
8835.937500	-119.088249
8859.375000	-121.056412
8882.812500	-119.978958
8906.250000	-122.015015
8929.687500	-123.564995
8953.125000	-123.415947
8976.562500	-121.871590
9000.000000	-119.617317
9023.437500	-119.228432
9046.875000	-116.058830
9070.312500	-110.908585
9093.750000	-110.323448
9117.187500	-113.993202
9140.625000	-117.973152
9164.062500	-122.498520
9187.500000	-123.166084
9210.937500	-122.239639
9234.375000	-120.550346
9257.812500	-121.302315
9281.250000	-121.843483
9304.687500	-121.715363
9328.125000	-124.212067
9351.562500	-120.928635
9375.000000	-116.350975
9398.437500	-116.216354
9421.875000	-117.426140
9445.312500	-117.041115
9468.750000	-119.881340
9492.187500	-119.373543
9515.625000	-119.136650
9539.062500	-122.671776
9562.500000	-122.080704
9585.937500	-120.168198
9609.375000	-119.271912
9632.812500	-121.069893
9656.250000	-123.074348
9679.687500	-124.368469
9703.125000	-123.711288
9726.562500	-124.271545
9750.000000	-125.218018
9773.437500	-124.896667
9796.875000	-124.830643
9820.312500	-124.750160
9843.750000	-123.238594
9867.187500	-121.779289
9890.625000	-122.649483
9914.062500	-122.787178
9937.500000	-122.175049
9960.937500	-123.491867
9984.375000	-123.953293
10007.812500	-122.870148
10031.250000	-121.737526
10054.687500	-122.313980
10078.125000	-123.041023
10101.562500	-122.958748
10125.000000	-122.388817
10148.437500	-121.781151
10171.875000	-123.756958
10195.312500	-124.703140
10218.750000	-124.976105
10242.187500	-125.776291
10265.625000	-125.402161
10289.062500	-123.976868
10312.500000	-122.889557
10335.937500	-123.498993
10359.375000	-122.591835
10382.812500	-117.834717
10406.250000	-116.806099
10429.687500	-116.953888
10453.125000	-114.456879
10476.562500	-117.868950
10500.000000	-121.489998
10523.437500	-122.020935
10546.875000	-123.087906
10570.312500	-123.924118
10593.750000	-125.064316
10617.187500	-126.045250
10640.625000	-125.757622
10664.062500	-125.547707
10687.500000	-124.966217
10710.937500	-122.247467
10734.375000	-120.645798
10757.812500	-122.545280
10781.250000	-121.621155
10804.687500	-124.262924
10828.125000	-125.309441
10851.562500	-126.101105
10875.000000	-126.658699
10898.437500	-125.996628
10921.875000	-125.284790
10945.312500	-125.445755
10968.750000	-125.884056
10992.187500	-125.964378
11015.625000	-124.679329
11039.062500	-124.581886
11062.500000	-125.480972
11085.937500	-125.489395
11109.375000	-125.089951
11132.812500	-125.352684
11156.250000	-126.514061
11179.687500	-126.420166
11203.125000	-125.288551
11226.562500	-124.733002
11250.000000	-126.070480
11273.437500	-127.147659
11296.875000	-127.547577
11320.312500	-126.525345
11343.750000	-125.859886
11367.187500	-125.990913
11390.625000	-126.294281
11414.062500	-126.045479
11437.500000	-125.074715
11460.937500	-123.077896
11484.375000	-122.832047
11507.812500	-124.919495
11531.250000	-126.657631
11554.687500	-127.147621
11578.125000	-126.923157
11601.562500	-125.823151
11625.000000	-125.936028
11648.437500	-125.902527
11671.875000	-125.803017
11695.312500	-125.529243
11718.750000	-125.138382
11742.187500	-124.316658
11765.625000	-123.684914
11789.062500	-123.537704
11812.500000	-124.644508
11835.937500	-124.691437
11859.375000	-126.083717
11882.812500	-126.845810
11906.250000	-127.357399
11929.687500	-127.465683
11953.125000	-127.271240
11976.562500	-126.910278
12000.000000	-125.005150
12023.437500	-123.729752
12046.875000	-123.851524
12070.312500	-126.485367
12093.750000	-127.625107
12117.187500	-127.902649
12140.625000	-127.756355
12164.062500	-127.310051
12187.500000	-126.663612
12210.937500	-125.864349
12234.375000	-126.503899
12257.812500	-126.859047
12281.250000	-126.845375
12304.687500	-127.152878
12328.125000	-127.309799
12351.562500	-127.074982
12375.000000	-126.087807
12398.437500	-126.340836
12421.875000	-127.149666
12445.312500	-127.518211
12468.750000	-127.784622
12492.187500	-127.703163
12515.625000	-127.627968
12539.062500	-127.653923
12562.500000	-127.814774
12585.937500	-127.820503
12609.375000	-127.200226
12632.812500	-126.775879
12656.250000	-126.418747
12679.687500	-127.091942
12703.125000	-127.615791
12726.562500	-127.613739
12750.000000	-127.542709
12773.437500	-127.148300
12796.875000	-127.391220
12820.312500	-126.980232
12843.750000	-126.865608
12867.187500	-127.567863
12890.625000	-127.883583
12914.062500	-128.000778
12937.500000	-128.167999
12960.937500	-128.004776
12984.375000	-127.622856
13007.812500	-126.464973
13031.250000	-125.760597
13054.687500	-126.950592
13078.125000	-127.663681
13101.562500	-127.731186
13125.000000	-127.558029
13148.437500	-127.529480
13171.875000	-127.285065
13195.312500	-126.322708
13218.750000	-125.829575
13242.187500	-126.319084
13265.625000	-125.409134
13289.062500	-124.614784
13312.500000	-126.381050
13335.937500	-127.138611
13359.375000	-126.741241
13382.812500	-126.400314
13406.250000	-126.875351
13429.687500	-127.188065
13453.125000	-127.420181
13476.562500	-127.606239
13500.000000	-127.627213
13523.437500	-127.802246
13546.875000	-128.013687
13570.312500	-128.055420
13593.750000	-128.016266
13617.187500	-127.415359
13640.625000	-127.445549
13664.062500	-127.444809
13687.500000	-127.311462
13710.937500	-127.750801
13734.375000	-127.796722
13757.812500	-127.908577
13781.250000	-128.095276
13804.687500	-128.006470
13828.125000	-128.038559
13851.562500	-128.062729
13875.000000	-128.095612
13898.437500	-128.153748
13921.875000	-128.143921
13945.312500	-128.194260
13968.750000	-128.089294
13992.187500	-128.155899
14015.625000	-127.952682
14039.062500	-127.693954
14062.500000	-127.984108
14085.937500	-128.037506
14109.375000	-128.064651
14132.812500	-128.028732
14156.250000	-128.182220
14179.687500	-128.215698
14203.125000	-128.120239
14226.562500	-128.179245
14250.000000	-128.165756
14273.437500	-128.244308
14296.875000	-128.315002
14320.312500	-128.326599
14343.750000	-128.274231
14367.187500	-127.996246
14390.625000	-128.039658
14414.062500	-128.251572
14437.500000	-128.213455
14460.937500	-128.310760
14484.375000	-128.441422
14507.812500	-128.448853
14531.250000	-128.185989
14554.687500	-128.201172
14578.125000	-128.410416
14601.562500	-128.405273
14625.000000	-128.439926
14648.437500	-128.209702
14671.875000	-128.096039
14695.312500	-128.058685
14718.750000	-127.612610
14742.187500	-127.582489
14765.625000	-128.002457
14789.062500	-128.178421
14812.500000	-128.035034
14835.937500	-127.849411
14859.375000	-127.958549
14882.812500	-128.151108
14906.250000	-128.437622
14929.687500	-128.519974
14953.125000	-128.369980
14976.562500	-128.288589
15000.000000	-128.319977
15023.437500	-128.146637
15046.875000	-128.144485
15070.312500	-128.395523
15093.750000	-128.374329
15117.187500	-128.238953
15140.625000	-127.917297
15164.062500	-127.827164
15187.500000	-127.536781
15210.937500	-127.716812
15234.375000	-128.239502
15257.812500	-128.374939
15281.250000	-128.329300
15304.687500	-128.428131
15328.125000	-128.441528
15351.562500	-128.499802
15375.000000	-128.419159
15398.437500	-128.422928
15421.875000	-128.393784
15445.312500	-128.328003
15468.750000	-128.295258
15492.187500	-128.390686
15515.625000	-128.477722
15539.062500	-128.523849
15562.500000	-128.415512
15585.937500	-128.379166
15609.375000	-128.395203
15632.812500	-128.312851
15656.250000	-128.319290
15679.687500	-128.287613
15703.125000	-128.248230
15726.562500	-128.134506
15750.000000	-128.272034
15773.437500	-128.302246
15796.875000	-128.309738
15820.312500	-128.501373
15843.750000	-128.531586
15867.187500	-128.445038
15890.625000	-128.293884
15914.062500	-128.317581
15937.500000	-128.373230
15960.937500	-128.226303
15984.375000	-128.315735
16007.812500	-128.368225
16031.250000	-128.207458
16054.687500	-128.318634
16078.125000	-128.385391
16101.562500	-128.384064
16125.000000	-128.438324
16148.437500	-128.436813
16171.875000	-128.417160
16195.312500	-128.320999
16218.750000	-128.437912
16242.187500	-128.552292
16265.625000	-128.430450
16289.062500	-128.383575
16312.500000	-128.398453
16335.937500	-128.533157
16359.375000	-128.302719
16382.812500	-128.028748
16406.250000	-128.164337
16429.687500	-128.486679
16453.125000	-128.468399
16476.562500	-128.404327
16500.000000	-128.285172
16523.437500	-128.452148
16546.875000	-128.438980
16570.312500	-128.458908
16593.750000	-128.485840
16617.187500	-128.455841
16640.625000	-128.492874
16664.062500	-128.523285
16687.500000	-128.559540
16710.937500	-128.567566
16734.375000	-128.522110
16757.812500	-128.515900
16781.250000	-128.473175
16804.687500	-128.432449
16828.125000	-128.459076
16851.562500	-128.413879
16875.000000	-128.497040
16898.437500	-128.589478
16921.875000	-128.592300
16945.312500	-128.533539
16968.750000	-128.497162
16992.187500	-128.533340
17015.625000	-128.544052
17039.062500	-128.589737
17062.500000	-128.570541
17085.937500	-128.536057
17109.375000	-128.563004
17132.812500	-128.543167
17156.250000	-128.477600
17179.687500	-128.470459
17203.125000	-128.462524
17226.562500	-128.346542
17250.000000	-128.418243
17273.437500	-128.521942
17296.875000	-128.523056
17320.312500	-128.448669
17343.750000	-128.509018
17367.187500	-128.605591
17390.625000	-128.499008
17414.062500	-128.523636
17437.500000	-128.521255
17460.937500	-128.495895
17484.375000	-128.480438
17507.812500	-128.448410
17531.250000	-128.598984
17554.687500	-128.475555
17578.125000	-128.445480
17601.562500	-128.556549
17625.000000	-128.461945
17648.437500	-128.547913
17671.875000	-128.544678
17695.312500	-128.615036
17718.750000	-128.558533
17742.187500	-128.473068
17765.625000	-128.458069
17789.062500	-128.445068
17812.500000	-128.464417
17835.937500	-128.476089
17859.375000	-128.466644
17882.812500	-128.504715
17906.250000	-128.466919
17929.687500	-128.500763
17953.125000	-128.320404
17976.562500	-128.016754
18000.000000	-127.792511
18023.437500	-128.260162
18046.875000	-128.515488
18070.312500	-128.505295
18093.750000	-128.485245
18117.187500	-128.626785
18140.625000	-128.591492
18164.062500	-128.556488
18187.500000	-128.597046
18210.937500	-128.490768
18234.375000	-128.483871
18257.812500	-128.517654
18281.250000	-128.584854
18304.687500	-128.509109
18328.125000	-128.534164
18351.562500	-128.555206
18375.000000	-128.598358
18398.437500	-128.597061
18421.875000	-128.595428
18445.312500	-128.571060
18468.750000	-128.522400
18492.187500	-128.556961
18515.625000	-128.599609
18539.062500	-128.573334
18562.500000	-128.527740
18585.937500	-128.513840
18609.375000	-128.545303
