주파수 (Hz)	레벨 (dB)
23.437500	-93.062012
46.875000	-79.783348
70.312500	-64.296150
93.750000	-56.459835
117.187500	-52.869560
140.625000	-51.312023
164.062500	-51.438007
187.500000	-48.951729
210.937500	-49.199665
234.375000	-48.720055
257.812500	-46.284103
281.250000	-46.586525
304.687500	-45.833618
328.125000	-44.090328
351.562500	-44.193329
375.000000	-47.752789
398.437500	-46.833019
421.875000	-44.095341
445.312500	-41.786556
468.750000	-43.505520
492.187500	-47.071857
515.625000	-45.050415
539.062500	-45.995102
562.500000	-51.179214
585.937500	-48.704552
609.375000	-46.379345
632.812500	-45.376007
656.250000	-48.497669
679.687500	-47.283646
703.125000	-43.989635
726.562500	-48.646210
750.000000	-51.423534
773.437500	-49.514378
796.875000	-48.868134
820.312500	-48.479065
843.750000	-47.552963
867.187500	-50.864853
890.625000	-49.929768
914.062500	-57.470989
937.500000	-57.215153
960.937500	-58.125977
984.375000	-53.435276
1007.812500	-55.993797
1031.250000	-53.749092
1054.687500	-50.526604
1078.125000	-56.919540
1101.562500	-60.993435
1125.000000	-63.323441
1148.437500	-62.706390
1171.875000	-54.172909
1195.312500	-53.997814
1218.750000	-62.798542
1242.187500	-56.839714
1265.625000	-56.735065
1289.062500	-62.282635
1312.500000	-57.059731
1335.937500	-56.194431
1359.375000	-61.505245
1382.812500	-60.939819
1406.250000	-59.314365
1429.687500	-62.855724
1453.125000	-64.196457
1476.562500	-60.432915
1500.000000	-60.977486
1523.437500	-68.451035
1546.875000	-66.727005
1570.312500	-58.895679
1593.750000	-59.767673
1617.187500	-69.136986
1640.625000	-69.591995
1664.062500	-63.650421
1687.500000	-64.188499
1710.937500	-70.433357
1734.375000	-66.573517
1757.812500	-61.633541
1781.250000	-60.410175
1804.687500	-66.603447
1828.125000	-68.320770
1851.562500	-66.758957
1875.000000	-61.808681
1898.437500	-63.706612
1921.875000	-71.693993
1945.312500	-69.956406
1968.750000	-61.523369
1992.187500	-61.618198
2015.625000	-70.119843
2039.062500	-73.576591
2062.500000	-71.769905
2085.937500	-67.896538
2109.375000	-62.735020
2132.812500	-64.282166
2156.250000	-74.623230
2179.687500	-73.280884
2203.125000	-69.645226
2226.562500	-67.528084
2250.000000	-70.768913
2273.437500	-77.835266
2296.875000	-77.635895
2320.312500	-72.524147
2343.750000	-69.697716
2367.187500	-62.494553
2390.625000	-61.475399
2414.062500	-70.021118
2437.500000	-76.731827
2460.937500	-70.887505
2484.375000	-65.706131
2507.812500	-67.335793
2531.250000	-67.623772
2554.687500	-74.134521
2578.125000	-81.060509
2601.562500	-80.061806
2625.000000	-80.160393
2648.437500	-70.772408
2671.875000	-66.277939
2695.312500	-70.387650
2718.750000	-79.757233
2742.187500	-74.137680
2765.625000	-72.275215
2789.062500	-69.592926
2812.500000	-67.128517
2835.937500	-62.008286
2859.375000	-64.914856
2882.812500	-75.321907
2906.250000	-80.508217
2929.687500	-79.693893
2953.125000	-76.455528
2976.562500	-74.382660
3000.000000	-73.527496
3023.437500	-73.689232
3046.875000	-74.173897
3070.312500	-78.027275
3093.750000	-73.837830
3117.187500	-76.896950
3140.625000	-77.590546
3164.062500	-76.112152
3187.500000	-72.363976
3210.937500	-71.628647
3234.375000	-76.253723
3257.812500	-85.057343
3281.250000	-78.551628
3304.687500	-77.658478
3328.125000	-77.283943
3351.562500	-76.151054
3375.000000	-77.936172
3398.437500	-77.412392
3421.875000	-79.326881
3445.312500	-85.911591
3468.750000	-84.021858
3492.187500	-81.083832
3515.625000	-82.516342
3539.062500	-77.834633
3562.500000	-70.920258
3585.937500	-68.637238
3609.375000	-71.273048
3632.812500	-77.364174
3656.250000	-83.966461
3679.687500	-88.139519
3703.125000	-88.128479
3726.562500	-87.556000
3750.000000	-75.562103
3773.437500	-71.839729
3796.875000	-77.735237
3820.312500	-75.526634
3843.750000	-72.504181
3867.187500	-75.497185
3890.625000	-83.571205
3914.062500	-81.976776
3937.500000	-81.862579
3960.937500	-83.391617
3984.375000	-82.246971
4007.812500	-79.942749
4031.250000	-81.933708
4054.687500	-79.839012
4078.125000	-78.790031
4101.562500	-81.569458
4125.000000	-86.999451
4148.437500	-90.819801
4171.875000	-86.848480
4195.312500	-84.470009
4218.750000	-81.583061
4242.187500	-76.978668
4265.625000	-80.226097
4289.062500	-81.138863
4312.500000	-77.033989
4335.937500	-78.739563
4359.375000	-80.957726
4382.812500	-87.964905
4406.250000	-91.574791
4429.687500	-90.533813
4453.125000	-87.553680
4476.562500	-84.511192
4500.000000	-80.797264
4523.437500	-79.993912
4546.875000	-82.307747
4570.312500	-85.446373
4593.750000	-87.577271
4617.187500	-87.820541
4640.625000	-90.868134
4664.062500	-91.670464
4687.500000	-93.554222
4710.937500	-94.590866
4734.375000	-89.105255
4757.812500	-85.928223
4781.250000	-87.865234
4804.687500	-90.398186
4828.125000	-85.352882
4851.562500	-82.019791
4875.000000	-84.307541
4898.437500	-87.186096
4921.875000	-89.382523
4945.312500	-90.255783
4968.750000	-93.316719
4992.187500	-96.970146
5015.625000	-97.095085
5039.062500	-89.282433
5062.500000	-82.064468
5085.937500	-84.533974
5109.375000	-91.500656
5132.812500	-83.407761
5156.250000	-81.693611
5179.687500	-84.669014
5203.125000	-88.789452
5226.562500	-90.673248
5250.000000	-91.633987
5273.437500	-91.598572
5296.875000	-95.965233
5320.312500	-98.442131
5343.750000	-94.320534
5367.187500	-89.219086
5390.625000	-89.790367
5414.062500	-95.506126
5437.500000	-90.686783
5460.937500	-86.694817
5484.375000	-84.482979
5507.812500	-86.090546
5531.250000	-92.823814
5554.687500	-89.814468
5578.125000	-92.395500
5601.562500	-95.679657
5625.000000	-95.648132
5648.437500	-98.894562
5671.875000	-97.179283
5695.312500	-91.137306
5718.750000	-86.966385
5742.187500	-86.863632
5765.625000	-90.743881
5789.062500	-99.735992
5812.500000	-90.969269
5835.937500	-87.117767
5859.375000	-89.965874
5882.812500	-98.149902
5906.250000	-98.402672
5929.687500	-96.303513
5953.125000	-98.659317
5976.562500	-95.567680
6000.000000	-94.731621
6023.437500	-101.457947
6046.875000	-103.119255
6070.312500	-93.848167
6093.750000	-90.405136
6117.187500	-94.490227
6140.625000	-100.113609
6164.062500	-94.133255
6187.500000	-85.820992
6210.937500	-85.796043
6234.375000	-91.882286
6257.812500	-95.073509
6281.250000	-90.048729
6304.687500	-92.055664
6328.125000	-97.791130
6351.562500	-99.174576
6375.000000	-94.754265
6398.437500	-96.109093
6421.875000	-101.833061
6445.312500	-94.842911
6468.750000	-91.102844
6492.187500	-91.170509
6515.625000	-91.173378
6539.062500	-97.330185
6562.500000	-98.516640
6585.937500	-94.758797
6609.375000	-92.133011
6632.812500	-96.166428
6656.250000	-100.038979
6679.687500	-93.848640
6703.125000	-93.642242
6726.562500	-94.015327
6750.000000	-94.966080
6773.437500	-96.021446
6796.875000	-99.100037
6820.312500	-97.486816
6843.750000	-100.221954
6867.187500	-105.857422
6890.625000	-105.394852
6914.062500	-104.570023
6937.500000	-106.004272
6960.937500	-103.331757
6984.375000	-100.138748
7007.812500	-94.993454
7031.250000	-91.951752
7054.687500	-93.480438
7078.125000	-98.707573
7101.562500	-102.859184
7125.000000	-97.805405
7148.437500	-98.265274
7171.875000	-101.833618
7195.312500	-100.320564
7218.750000	-101.196335
7242.187500	-102.664154
7265.625000	-99.268562
7289.062500	-100.322807
7312.500000	-102.337143
7335.937500	-102.625687
7359.375000	-103.011749
7382.812500	-105.234665
7406.250000	-105.819489
7429.687500	-102.812271
7453.125000	-95.594604
7476.562500	-90.546829
7500.000000	-89.084145
7523.437500	-89.816498
7546.875000	-94.673203
7570.312500	-102.112076
7593.750000	-103.585251
7617.187500	-102.508850
7640.625000	-102.774200
7664.062500	-106.081612
7687.500000	-104.770363
7710.937500	-102.149712
7734.375000	-100.562752
7757.812500	-104.051239
7781.250000	-104.631752
7804.687500	-105.680244
7828.125000	-104.301552
7851.562500	-100.514137
7875.000000	-101.602425
7898.437500	-106.423195
7921.875000	-106.913956
7945.312500	-107.761086
7968.750000	-105.480988
7992.187500	-98.679054
8015.625000	-94.706421
8039.062500	-97.550293
8062.500000	-103.376114
8085.937500	-103.575523
8109.375000	-104.844795
8132.812500	-108.898117
8156.250000	-108.131660
8179.687500	-106.121162
8203.125000	-102.540421
8226.562500	-103.147545
8250.000000	-103.848785
8273.437500	-103.240761
8296.875000	-105.484276
8320.312500	-100.088364
8343.750000	-99.720367
8367.187500	-104.886169
8390.625000	-107.037796
8414.062500	-102.606079
8437.500000	-98.018456
8460.937500	-100.247810
8484.375000	-105.086029
8507.812500	-102.874176
8531.250000	-99.724358
8554.687500	-100.815033
8578.125000	-103.753059
8601.562500	-108.313187
8625.000000	-109.795097
8648.437500	-108.755470
8671.875000	-108.224342
8695.312500	-110.198044
8718.750000	-108.250710
8742.187500	-107.648376
8765.625000	-109.045761
8789.062500	-109.948845
8812.500000	-107.580170
8835.937500	-106.150665
8859.375000	-108.539551
8882.812500	-109.673721
8906.250000	-107.795746
8929.687500	-109.651535
8953.125000	-112.165146
8976.562500	-109.019295
9000.000000	-104.987679
9023.437500	-103.164299
9046.875000	-105.394569
9070.312500	-108.735252
9093.750000	-107.481499
9117.187500	-105.852600
9140.625000	-108.919563
9164.062500	-113.409531
9187.500000	-113.410866
9210.937500	-112.484261
9234.375000	-111.775070
9257.812500	-113.316933
9281.250000	-114.355576
9304.687500	-113.472054
9328.125000	-113.310738
9351.562500	-109.243568
9375.000000	-102.966080
9398.437500	-104.256836
9421.875000	-107.032082
9445.312500	-108.058281
9468.750000	-110.275978
9492.187500	-111.910576
9515.625000	-112.456093
9539.062500	-113.364983
9562.500000	-112.641472
9585.937500	-111.177208
9609.375000	-109.569626
9632.812500	-109.771286
9656.250000	-110.549957
9679.687500	-111.114792
9703.125000	-111.147423
9726.562500	-111.989670
9750.000000	-114.876549
9773.437500	-115.569801
9796.875000	-114.887199
9820.312500	-115.238235
9843.750000	-115.047752
9867.187500	-115.120583
9890.625000	-116.055717
9914.062500	-115.674973
9937.500000	-114.228508
9960.937500	-112.073181
9984.375000	-110.583969
10007.812500	-110.575462
10031.250000	-107.626930
10054.687500	-108.483124
10078.125000	-109.315559
10101.562500	-110.396553
10125.000000	-110.961929
10148.437500	-111.123657
10171.875000	-113.173393
10195.312500	-114.432144
10218.750000	-115.192474
10242.187500	-114.773651
10265.625000	-111.885437
10289.062500	-110.778549
10312.500000	-112.797470
10335.937500	-112.760521
10359.375000	-113.525505
10382.812500	-113.742043
10406.250000	-111.068810
10429.687500	-109.456200
10453.125000	-110.482697
10476.562500	-111.919678
10500.000000	-110.463242
10523.437500	-109.941116
10546.875000	-110.752670
10570.312500	-112.503548
10593.750000	-114.120689
10617.187500	-114.922501
10640.625000	-114.921127
10664.062500	-113.971779
10687.500000	-113.409645
10710.937500	-112.270325
10734.375000	-112.700150
10757.812500	-113.705971
10781.250000	-115.312408
10804.687500	-113.283112
10828.125000	-112.394691
10851.562500	-114.569283
10875.000000	-116.550667
10898.437500	-116.401054
10921.875000	-115.676140
10945.312500	-116.373062
10968.750000	-115.635330
10992.187500	-116.370407
11015.625000	-115.617256
11039.062500	-114.953384
11062.500000	-116.245911
11085.937500	-116.657097
11109.375000	-114.171478
11132.812500	-111.149826
11156.250000	-113.902588
11179.687500	-116.957779
11203.125000	-115.758957
11226.562500	-115.089050
11250.000000	-115.529869
11273.437500	-117.854370
11296.875000	-119.187035
11320.312500	-118.084839
11343.750000	-116.570808
11367.187500	-117.361382
11390.625000	-117.932014
11414.062500	-116.840828
11437.500000	-115.629105
11460.937500	-117.312263
11484.375000	-117.837585
11507.812500	-116.546219
11531.250000	-118.028282
11554.687500	-118.271179
11578.125000	-118.126511
11601.562500	-118.554184
11625.000000	-118.713280
11648.437500	-118.617386
11671.875000	-118.458229
11695.312500	-118.053841
11718.750000	-117.071136
11742.187500	-116.237175
11765.625000	-117.381058
11789.062500	-118.428268
11812.500000	-118.983864
11835.937500	-119.365860
11859.375000	-119.344627
11882.812500	-118.495178
11906.250000	-117.234833
11929.687500	-116.782722
11953.125000	-117.249741
11976.562500	-117.083076
12000.000000	-114.726494
12023.437500	-116.909187
12046.875000	-117.404739
12070.312500	-117.370140
12093.750000	-117.560478
12117.187500	-118.042130
12140.625000	-118.821365
12164.062500	-118.773689
12187.500000	-118.303940
12210.937500	-118.680687
12234.375000	-116.605362
12257.812500	-116.696037
12281.250000	-117.625656
12304.687500	-114.791161
12328.125000	-116.632652
12351.562500	-118.330299
12375.000000	-116.759262
12398.437500	-118.108681
12421.875000	-119.157799
12445.312500	-119.037544
12468.750000	-119.371620
12492.187500	-119.951675
12515.625000	-119.538322
12539.062500	-119.232422
12562.500000	-118.760361
12585.937500	-117.895287
12609.375000	-117.700783
12632.812500	-117.444916
12656.250000	-118.214348
12679.687500	-118.748810
12703.125000	-118.818672
12726.562500	-119.047859
12750.000000	-119.582298
12773.437500	-119.362190
12796.875000	-119.003029
12820.312500	-118.368660
12843.750000	-118.763954
12867.187500	-119.109741
12890.625000	-119.406471
12914.062500	-119.623413
12937.500000	-120.086227
12960.937500	-119.919777
12984.375000	-119.319740
13007.812500	-117.185905
13031.250000	-116.868446
13054.687500	-119.080200
13078.125000	-119.112411
13101.562500	-119.171219
13125.000000	-119.653267
13148.437500	-119.857834
13171.875000	-119.992210
13195.312500	-119.303406
13218.750000	-118.493584
13242.187500	-119.485435
13265.625000	-119.630104
13289.062500	-119.494965
13312.500000	-119.749031
13335.937500	-119.820717
13359.375000	-119.349274
13382.812500	-119.112106
13406.250000	-118.929466
13429.687500	-118.183830
13453.125000	-118.460289
13476.562500	-118.228607
13500.000000	-116.520256
13523.437500	-117.335144
13546.875000	-119.625389
13570.312500	-120.326187
13593.750000	-120.512756
13617.187500	-120.473267
13640.625000	-120.430740
13664.062500	-119.646446
13687.500000	-119.400528
13710.937500	-120.155777
13734.375000	-120.122406
13757.812500	-120.467865
13781.250000	-120.626022
13804.687500	-120.534767
13828.125000	-120.646683
13851.562500	-120.683212
13875.000000	-120.908073
13898.437500	-121.070793
13921.875000	-120.853729
13945.312500	-120.846252
13968.750000	-120.487556
13992.187500	-120.720573
14015.625000	-119.969749
14039.062500	-119.453323
14062.500000	-120.703865
14085.937500	-120.429428
14109.375000	-120.001526
14132.812500	-120.523315
14156.250000	-120.496758
14179.687500	-120.970833
14203.125000	-121.178062
14226.562500	-121.160263
14250.000000	-121.234337
14273.437500	-121.268265
14296.875000	-121.289047
14320.312500	-121.098160
14343.750000	-120.978752
14367.187500	-120.714325
14390.625000	-120.794594
14414.062500	-121.294617
14437.500000	-120.967262
14460.937500	-120.874130
14484.375000	-121.248123
14507.812500	-121.424683
14531.250000	-121.591980
14554.687500	-121.436783
14578.125000	-121.518875
14601.562500	-121.748589
14625.000000	-121.665855
14648.437500	-120.301598
14671.875000	-117.259819
14695.312500	-118.332939
14718.750000	-120.059921
14742.187500	-120.365440
14765.625000	-120.907806
14789.062500	-121.342056
14812.500000	-121.496033
14835.937500	-121.522514
14859.375000	-121.722198
14882.812500	-121.868889
14906.250000	-121.816925
14929.687500	-121.708321
14953.125000	-121.709610
14976.562500	-121.208893
15000.000000	-119.884171
15023.437500	-120.915543
15046.875000	-121.406441
15070.312500	-121.475517
15093.750000	-121.626152
15117.187500	-121.545288
15140.625000	-121.689049
15164.062500	-121.950684
15187.500000	-121.641045
15210.937500	-121.652473
15234.375000	-121.897743
15257.812500	-121.986008
15281.250000	-122.161690
15304.687500	-122.182953
15328.125000	-122.179749
15351.562500	-122.049530
15375.000000	-122.064323
15398.437500	-122.110229
15421.875000	-122.096893
15445.312500	-121.978683
15468.750000	-121.761955
15492.187500	-121.650749
15515.625000	-121.916573
15539.062500	-122.013771
15562.500000	-122.041389
15585.937500	-122.065857
15609.375000	-122.051796
15632.812500	-122.100098
15656.250000	-122.134750
15679.687500	-121.932434
15703.125000	-121.957626
15726.562500	-122.002739
15750.000000	-121.886681
15773.437500	-121.704605
15796.875000	-121.765068
15820.312500	-121.868149
15843.750000	-122.082542
15867.187500	-122.003151
15890.625000	-121.926537
15914.062500	-121.759819
15937.500000	-121.236885
15960.937500	-120.440933
15984.375000	-119.591354
16007.812500	-121.042274
16031.250000	-121.735016
16054.687500	-121.873520
16078.125000	-122.156906
16101.562500	-122.110657
16125.000000	-122.326775
16148.437500	-122.612625
16171.875000	-122.527023
16195.312500	-122.450836
16218.750000	-122.388229
16242.187500	-122.288437
16265.625000	-122.434158
16289.062500	-122.465523
16312.500000	-122.466385
16335.937500	-122.493187
16359.375000	-122.570389
16382.812500	-122.525398
16406.250000	-122.491310
16429.687500	-122.583534
16453.125000	-122.572525
16476.562500	-122.196312
16500.000000	-121.174118
16523.437500	-122.096817
16546.875000	-122.557320
16570.312500	-122.731384
16593.750000	-122.660629
16617.187500	-122.601837
16640.625000	-122.577995
16664.062500	-122.671959
16687.500000	-122.664482
16710.937500	-122.679520
16734.375000	-122.788132
16757.812500	-122.708138
16781.250000	-122.395996
16804.687500	-121.839340
16828.125000	-121.481468
16851.562500	-121.506035
16875.000000	-121.913010
16898.437500	-122.016129
16921.875000	-122.003433
16945.312500	-122.294945
16968.750000	-122.621918
16992.187500	-122.726982
17015.625000	-122.745941
17039.062500	-122.777031
17062.500000	-122.756615
17085.937500	-122.925034
17109.375000	-122.939018
17132.812500	-122.805603
17156.250000	-122.756744
17179.687500	-122.714157
17203.125000	-122.736069
17226.562500	-122.709732
17250.000000	-122.695488
17273.437500	-122.698448
17296.875000	-122.845253
17320.312500	-122.851028
17343.750000	-122.874352
17367.187500	-122.925133
17390.625000	-123.004189
17414.062500	-122.849480
17437.500000	-122.833435
17460.937500	-123.038452
17484.375000	-122.984848
17507.812500	-123.031921
17531.250000	-123.012299
17554.687500	-122.937126
17578.125000	-123.006378
17601.562500	-123.060623
17625.000000	-123.105392
17648.437500	-123.046387
17671.875000	-123.044907
17695.312500	-123.064606
17718.750000	-123.018181
17742.187500	-122.950974
17765.625000	-122.988403
17789.062500	-122.893982
17812.500000	-123.023087
17835.937500	-123.118881
17859.375000	-123.109406
17882.812500	-123.039391
17906.250000	-123.078369
17929.687500	-123.164078
17953.125000	-123.196182
17976.562500	-122.629288
18000.000000	-121.284943
18023.437500	-122.445160
18046.875000	-123.030701
18070.312500	-123.096977
18093.750000	-123.124763
18117.187500	-123.044762
18140.625000	-123.069450
18164.062500	-123.161911
18187.500000	-123.248795
18210.937500	-123.259293
18234.375000	-123.147919
18257.812500	-123.096428
18281.250000	-123.123825
18304.687500	-123.159599
18328.125000	-123.286438
18351.562500	-123.249596
18375.000000	-123.237808
18398.437500	-123.161514
18421.875000	-123.110817
18445.312500	-123.108719
18468.750000	-123.079765
18492.187500	-123.126656
18515.625000	-123.108116
18539.062500	-122.872559
18562.500000	-122.531830
18585.937500	-122.303513
18609.375000	-122.392288
18632.812500	-122.899208
18656.250000	-123.007942
18679.687500	-123.070801
18703.125000	-123.059967
