주파수 (Hz)	레벨 (dB)
23.437500	-95.090919
46.875000	-83.024574
70.312500	-67.615341
93.750000	-60.048397
117.187500	-56.576607
140.625000	-52.495445
164.062500	-52.217331
187.500000	-51.369858
210.937500	-50.615791
234.375000	-49.784748
257.812500	-47.979755
281.250000	-50.375542
304.687500	-48.348259
328.125000	-48.702789
351.562500	-48.513363
375.000000	-47.905243
398.437500	-47.518974
421.875000	-50.988419
445.312500	-51.458340
468.750000	-48.130512
492.187500	-49.431992
515.625000	-47.172585
539.062500	-48.060104
562.500000	-53.147167
585.937500	-50.605862
609.375000	-45.794323
632.812500	-44.317501
656.250000	-49.793297
679.687500	-50.125370
703.125000	-47.940117
726.562500	-53.623459
750.000000	-59.681778
773.437500	-54.600307
796.875000	-54.074287
820.312500	-54.974968
843.750000	-55.244690
867.187500	-60.810738
890.625000	-62.117920
914.062500	-62.605087
937.500000	-60.728592
960.937500	-64.687408
984.375000	-60.188042
1007.812500	-61.906860
1031.250000	-59.902531
1054.687500	-56.744061
1078.125000	-62.040150
1101.562500	-65.142387
1125.000000	-67.308678
1148.437500	-64.831665
1171.875000	-54.494267
1195.312500	-54.739120
1218.750000	-62.176060
1242.187500	-53.524071
1265.625000	-54.127155
1289.062500	-63.020332
1312.500000	-58.043217
1335.937500	-59.388752
1359.375000	-67.825638
1382.812500	-62.824768
1406.250000	-58.334023
1429.687500	-62.644608
1453.125000	-68.159515
1476.562500	-65.137924
1500.000000	-65.650711
1523.437500	-70.782898
1546.875000	-66.035789
1570.312500	-57.820713
1593.750000	-57.898285
1617.187500	-68.729401
1640.625000	-69.565025
1664.062500	-62.687870
1687.500000	-64.170158
1710.937500	-73.543900
1734.375000	-73.305176
1757.812500	-69.105270
1781.250000	-66.446609
1804.687500	-71.992470
1828.125000	-72.544128
1851.562500	-67.698334
1875.000000	-64.558601
1898.437500	-65.391632
1921.875000	-74.607864
1945.312500	-75.437141
1968.750000	-68.120117
1992.187500	-66.188721
2015.625000	-71.224670
2039.062500	-76.545441
2062.500000	-74.469780
2085.937500	-68.507278
2109.375000	-65.305656
2132.812500	-67.925117
2156.250000	-76.104858
2179.687500	-76.796410
2203.125000	-72.462502
2226.562500	-72.792641
2250.000000	-74.312920
2273.437500	-79.559242
2296.875000	-81.749794
2320.312500	-78.073700
2343.750000	-75.391891
2367.187500	-69.105423
2390.625000	-68.786453
2414.062500	-77.125313
2437.500000	-81.937721
2460.937500	-79.612068
2484.375000	-75.467094
2507.812500	-68.212402
2531.250000	-66.351440
2554.687500	-74.103081
2578.125000	-80.922783
2601.562500	-82.026237
2625.000000	-79.377144
2648.437500	-70.653931
2671.875000	-69.441376
2695.312500	-76.879677
2718.750000	-84.992569
2742.187500	-82.178558
2765.625000	-78.344154
2789.062500	-75.104103
2812.500000	-75.798073
2835.937500	-72.911575
2859.375000	-75.546799
2882.812500	-82.040947
2906.250000	-86.223457
2929.687500	-82.355698
2953.125000	-76.722824
2976.562500	-76.540161
3000.000000	-76.275742
3023.437500	-76.045166
3046.875000	-83.259193
3070.312500	-86.617607
3093.750000	-78.142006
3117.187500	-78.986992
3140.625000	-80.468300
3164.062500	-73.608414
3187.500000	-71.254601
3210.937500	-73.835579
3234.375000	-80.090469
3257.812500	-87.510651
3281.250000	-82.083450
3304.687500	-81.672203
3328.125000	-82.486786
3351.562500	-82.657837
3375.000000	-80.548088
3398.437500	-80.039078
3421.875000	-82.074760
3445.312500	-87.991356
3468.750000	-87.031036
3492.187500	-84.627731
3515.625000	-84.793221
3539.062500	-83.453407
3562.500000	-82.812172
3585.937500	-83.674652
3609.375000	-83.504707
3632.812500	-86.470947
3656.250000	-91.376816
3679.687500	-89.963959
3703.125000	-86.312492
3726.562500	-86.546043
3750.000000	-81.999481
3773.437500	-78.201508
3796.875000	-81.356201
3820.312500	-81.050545
3843.750000	-80.060173
3867.187500	-81.868835
3890.625000	-89.481689
3914.062500	-94.798309
3937.500000	-92.557625
3960.937500	-90.819183
3984.375000	-90.424179
4007.812500	-88.384514
4031.250000	-88.345276
4054.687500	-85.849564
4078.125000	-85.998848
4101.562500	-88.534538
4125.000000	-91.137993
4148.437500	-93.852875
4171.875000	-91.649567
4195.312500	-87.124687
4218.750000	-86.314384
4242.187500	-81.426331
4265.625000	-83.356796
4289.062500	-87.210159
4312.500000	-84.744110
4335.937500	-83.247185
4359.375000	-84.657448
4382.812500	-90.289787
4406.250000	-96.908943
4429.687500	-97.304306
4453.125000	-96.466179
4476.562500	-86.904144
4500.000000	-83.381790
4523.437500	-88.273079
4546.875000	-91.603149
4570.312500	-91.584099
4593.750000	-93.065163
4617.187500	-95.054573
4640.625000	-91.775475
4664.062500	-90.077271
4687.500000	-90.257149
4710.937500	-93.384926
4734.375000	-92.179665
4757.812500	-90.625847
4781.250000	-92.536774
4804.687500	-95.119896
4828.125000	-91.639694
4851.562500	-89.677055
4875.000000	-91.280426
4898.437500	-92.309952
4921.875000	-91.285210
4945.312500	-92.482727
4968.750000	-99.464912
4992.187500	-102.518745
5015.625000	-99.561111
5039.062500	-95.258553
5062.500000	-92.153503
5085.937500	-92.996429
5109.375000	-95.817039
5132.812500	-92.520660
5156.250000	-88.943512
5179.687500	-88.490349
5203.125000	-94.586006
5226.562500	-94.479797
5250.000000	-88.367432
5273.437500	-91.072136
5296.875000	-99.808777
5320.312500	-101.680298
5343.750000	-98.578362
5367.187500	-94.975151
5390.625000	-91.951569
5414.062500	-89.248917
5437.500000	-91.695412
5460.937500	-98.072906
5484.375000	-97.430923
5507.812500	-95.458687
5531.250000	-93.942032
5554.687500	-91.911644
5578.125000	-94.458656
5601.562500	-95.939110
5625.000000	-94.020996
5648.437500	-99.866257
5671.875000	-97.950119
5695.312500	-94.569435
5718.750000	-90.750153
5742.187500	-87.820267
5765.625000	-90.900002
5789.062500	-99.218925
5812.500000	-94.751213
5835.937500	-90.168945
5859.375000	-91.566147
5882.812500	-92.588669
5906.250000	-91.869217
5929.687500	-95.382637
5953.125000	-97.301674
5976.562500	-99.246620
6000.000000	-102.682823
6023.437500	-106.484451
6046.875000	-105.533653
6070.312500	-95.115837
6093.750000	-91.426659
6117.187500	-93.026695
6140.625000	-94.717690
6164.062500	-93.395279
6187.500000	-91.581635
6210.937500	-94.218071
6234.375000	-99.693405
6257.812500	-104.221962
6281.250000	-104.547462
6304.687500	-102.810913
6328.125000	-105.239777
6351.562500	-103.400215
6375.000000	-99.645767
6398.437500	-100.717506
6421.875000	-106.831985
6445.312500	-109.395927
6468.750000	-104.749115
6492.187500	-101.402161
6515.625000	-100.892708
6539.062500	-103.388641
6562.500000	-103.754425
6585.937500	-98.221138
6609.375000	-94.875290
6632.812500	-97.854034
6656.250000	-103.009224
6679.687500	-97.311638
6703.125000	-98.415627
6726.562500	-100.275879
6750.000000	-101.589020
6773.437500	-102.268311
6796.875000	-102.134827
6820.312500	-98.837036
6843.750000	-101.576378
6867.187500	-108.317970
6890.625000	-107.442017
6914.062500	-105.011475
6937.500000	-104.746750
6960.937500	-103.676376
6984.375000	-100.489571
7007.812500	-101.031067
7031.250000	-98.227417
7054.687500	-101.650352
7078.125000	-105.844772
7101.562500	-104.961311
7125.000000	-106.138023
7148.437500	-107.193848
7171.875000	-110.789169
7195.312500	-106.325249
7218.750000	-105.049812
7242.187500	-109.644821
7265.625000	-107.795876
7289.062500	-103.827934
7312.500000	-104.049248
7335.937500	-105.504013
7359.375000	-105.033279
7382.812500	-105.921593
7406.250000	-104.093636
7429.687500	-106.114555
7453.125000	-105.951439
7476.562500	-102.669243
7500.000000	-101.587761
7523.437500	-99.957687
7546.875000	-103.058464
7570.312500	-104.829590
7593.750000	-105.865776
7617.187500	-105.059418
7640.625000	-110.239456
7664.062500	-113.181175
7687.500000	-113.131401
7710.937500	-111.479584
7734.375000	-109.851273
7757.812500	-108.707024
7781.250000	-107.587280
7804.687500	-109.265411
7828.125000	-109.821518
7851.562500	-108.127365
7875.000000	-108.540596
7898.437500	-110.303062
7921.875000	-108.583832
7945.312500	-107.456505
7968.750000	-105.169601
7992.187500	-102.161644
8015.625000	-102.108177
8039.062500	-107.935951
8062.500000	-110.715012
8085.937500	-107.492828
8109.375000	-106.836357
8132.812500	-112.000389
8156.250000	-114.370674
8179.687500	-113.993095
8203.125000	-113.510162
8226.562500	-115.180611
8250.000000	-114.335068
8273.437500	-113.359573
8296.875000	-112.723282
8320.312500	-104.876343
8343.750000	-103.527252
8367.187500	-108.650070
8390.625000	-112.357880
8414.062500	-111.563293
8437.500000	-106.765678
8460.937500	-104.775620
8484.375000	-106.990936
8507.812500	-109.176720
8531.250000	-110.213013
8554.687500	-113.555199
8578.125000	-114.558434
8601.562500	-114.917892
8625.000000	-115.588181
8648.437500	-116.163010
8671.875000	-116.319221
8695.312500	-114.667931
8718.750000	-113.731682
8742.187500	-111.683556
8765.625000	-110.889313
8789.062500	-112.357918
8812.500000	-114.973045
8835.937500	-115.398361
8859.375000	-113.824669
8882.812500	-111.618233
8906.250000	-111.503464
8929.687500	-113.153145
8953.125000	-114.076576
8976.562500	-114.360832
9000.000000	-106.972565
9023.437500	-103.364090
9046.875000	-105.896591
9070.312500	-109.506233
9093.750000	-109.481483
9117.187500	-109.420616
9140.625000	-113.221611
9164.062500	-116.251816
9187.500000	-114.695496
9210.937500	-114.105141
9234.375000	-115.055893
9257.812500	-116.957779
9281.250000	-117.732254
9304.687500	-117.493019
9328.125000	-117.078835
9351.562500	-117.511765
9375.000000	-114.831108
9398.437500	-110.925667
9421.875000	-109.177032
9445.312500	-110.220520
9468.750000	-112.302071
9492.187500	-112.932487
9515.625000	-115.141983
9539.062500	-118.397369
9562.500000	-116.732513
9585.937500	-114.986984
9609.375000	-115.209610
9632.812500	-115.495850
9656.250000	-115.544350
9679.687500	-113.484352
9703.125000	-112.689674
9726.562500	-114.791649
9750.000000	-115.945366
9773.437500	-115.419434
9796.875000	-115.946198
9820.312500	-116.892937
9843.750000	-116.351936
9867.187500	-116.472176
9890.625000	-115.001686
9914.062500	-116.930481
9937.500000	-115.559547
9960.937500	-116.885490
9984.375000	-115.853104
10007.812500	-113.499260
10031.250000	-111.235077
10054.687500	-109.713684
10078.125000	-109.354523
10101.562500	-112.412529
10125.000000	-116.500458
10148.437500	-116.573158
10171.875000	-115.972450
10195.312500	-115.308601
10218.750000	-114.661469
10242.187500	-115.372002
10265.625000	-116.053459
10289.062500	-115.869728
10312.500000	-114.981949
10335.937500	-113.849915
10359.375000	-111.761688
10382.812500	-112.381149
10406.250000	-106.568253
10429.687500	-104.747070
10453.125000	-107.001152
10476.562500	-112.183243
10500.000000	-116.325714
10523.437500	-115.885300
10546.875000	-117.712914
10570.312500	-120.203178
10593.750000	-121.744171
10617.187500	-121.763184
10640.625000	-121.206001
10664.062500	-121.047691
10687.500000	-120.933487
10710.937500	-121.169861
10734.375000	-121.248665
10757.812500	-120.287323
10781.250000	-119.399498
10804.687500	-119.377296
10828.125000	-119.297363
10851.562500	-121.317535
10875.000000	-119.462685
10898.437500	-117.420853
10921.875000	-118.294228
10945.312500	-118.241684
10968.750000	-117.388489
10992.187500	-119.907173
11015.625000	-121.838448
11039.062500	-121.543854
11062.500000	-122.066162
11085.937500	-122.044670
11109.375000	-118.940117
11132.812500	-115.359245
11156.250000	-111.826874
11179.687500	-112.314743
11203.125000	-111.817459
11226.562500	-112.344139
11250.000000	-116.107216
11273.437500	-117.010887
11296.875000	-119.308189
11320.312500	-118.920166
11343.750000	-118.566963
11367.187500	-118.151268
11390.625000	-117.879761
11414.062500	-117.715477
11437.500000	-113.823441
11460.937500	-116.872093
11484.375000	-122.748787
11507.812500	-123.069603
11531.250000	-123.538742
11554.687500	-123.972191
11578.125000	-123.950531
11601.562500	-123.964760
11625.000000	-123.876732
11648.437500	-123.421631
11671.875000	-122.759178
11695.312500	-122.373177
11718.750000	-119.714462
11742.187500	-118.612961
11765.625000	-119.747849
11789.062500	-119.309669
11812.500000	-121.009964
11835.937500	-123.340767
11859.375000	-123.724945
11882.812500	-122.572655
11906.250000	-122.329453
11929.687500	-123.361343
11953.125000	-124.617073
11976.562500	-125.391876
12000.000000	-125.338737
12023.437500	-124.345383
12046.875000	-122.921341
12070.312500	-123.223160
12093.750000	-123.281326
12117.187500	-123.940590
12140.625000	-124.321999
12164.062500	-123.209969
12187.500000	-122.869507
12210.937500	-122.297012
12234.375000	-118.477562
12257.812500	-117.616333
12281.250000	-122.119247
12304.687500	-120.885666
12328.125000	-122.564804
12351.562500	-123.601219
12375.000000	-121.990379
12398.437500	-122.863213
12421.875000	-124.440292
12445.312500	-125.083099
12468.750000	-125.650963
12492.187500	-125.833267
12515.625000	-125.631065
12539.062500	-125.455009
12562.500000	-125.536201
12585.937500	-126.197250
12609.375000	-126.071838
12632.812500	-125.273743
12656.250000	-124.589027
12679.687500	-124.265381
12703.125000	-124.848396
12726.562500	-124.683319
12750.000000	-124.681129
12773.437500	-125.085052
12796.875000	-125.268982
12820.312500	-124.767738
12843.750000	-125.531471
12867.187500	-126.071922
12890.625000	-125.924744
12914.062500	-126.241798
12937.500000	-126.233963
12960.937500	-125.262398
12984.375000	-125.948715
13007.812500	-126.265549
13031.250000	-126.186653
13054.687500	-126.268616
13078.125000	-126.445694
13101.562500	-126.153152
13125.000000	-125.572746
13148.437500	-125.720001
13171.875000	-125.337135
13195.312500	-124.702293
13218.750000	-125.356506
13242.187500	-125.487221
13265.625000	-126.085548
13289.062500	-126.828941
13312.500000	-126.635635
13335.937500	-125.829109
13359.375000	-125.232185
13382.812500	-124.768257
13406.250000	-124.373489
13429.687500	-124.367470
13453.125000	-122.444130
13476.562500	-117.907364
13500.000000	-116.689568
13523.437500	-116.973236
13546.875000	-121.009377
13570.312500	-124.773987
13593.750000	-125.855804
13617.187500	-125.125755
13640.625000	-123.689072
13664.062500	-123.602631
13687.500000	-124.459282
13710.937500	-125.472336
13734.375000	-126.464035
13757.812500	-126.750259
13781.250000	-126.973495
13804.687500	-126.958542
13828.125000	-127.256859
13851.562500	-126.926208
13875.000000	-126.787056
13898.437500	-126.519440
13921.875000	-126.495522
13945.312500	-126.617378
13968.750000	-126.434853
13992.187500	-126.143448
14015.625000	-125.855385
14039.062500	-125.378227
14062.500000	-125.979568
14085.937500	-126.089096
14109.375000	-125.732048
14132.812500	-126.231819
14156.250000	-126.564598
14179.687500	-126.221130
14203.125000	-126.381653
14226.562500	-127.106483
14250.000000	-127.335373
14273.437500	-127.318306
14296.875000	-127.427368
14320.312500	-127.426025
14343.750000	-126.899216
14367.187500	-126.529068
14390.625000	-126.830521
14414.062500	-127.392815
14437.500000	-127.583702
14460.937500	-127.710625
14484.375000	-127.779404
14507.812500	-127.506401
14531.250000	-127.343552
14554.687500	-127.358574
14578.125000	-127.426170
14601.562500	-127.481544
14625.000000	-126.979660
14648.437500	-126.437210
14671.875000	-126.195236
14695.312500	-126.093803
14718.750000	-125.343430
14742.187500	-124.066216
14765.625000	-125.645935
14789.062500	-127.112198
14812.500000	-127.016258
14835.937500	-127.451591
14859.375000	-127.785088
14882.812500	-127.540192
14906.250000	-127.409843
14929.687500	-127.676201
14953.125000	-127.583725
14976.562500	-127.522934
15000.000000	-127.596817
15023.437500	-127.422073
15046.875000	-127.170258
15070.312500	-127.446411
15093.750000	-127.869728
15117.187500	-127.899666
15140.625000	-127.895103
15164.062500	-127.884834
15187.500000	-127.527382
15210.937500	-127.335793
15234.375000	-127.685585
15257.812500	-128.031326
15281.250000	-127.973839
15304.687500	-127.778572
15328.125000	-127.755287
15351.562500	-128.126678
15375.000000	-128.008621
15398.437500	-127.730400
15421.875000	-127.703362
15445.312500	-127.683296
15468.750000	-127.530640
15492.187500	-127.687370
15515.625000	-127.837479
15539.062500	-127.997482
15562.500000	-127.919029
15585.937500	-127.615120
15609.375000	-127.461441
15632.812500	-127.659904
15656.250000	-127.917168
15679.687500	-127.921280
15703.125000	-127.837776
15726.562500	-127.714752
15750.000000	-127.835892
15773.437500	-127.784531
15796.875000	-127.595978
15820.312500	-127.701485
15843.750000	-127.638641
15867.187500	-127.477760
15890.625000	-127.232666
15914.062500	-127.023285
15937.500000	-126.987846
15960.937500	-125.979469
15984.375000	-125.943787
16007.812500	-126.552963
16031.250000	-127.358994
16054.687500	-127.631706
16078.125000	-127.900269
16101.562500	-127.952354
16125.000000	-128.009384
16148.437500	-128.167007
16171.875000	-128.241241
16195.312500	-128.265747
16218.750000	-128.188568
16242.187500	-128.063400
16265.625000	-128.112747
16289.062500	-128.049911
16312.500000	-127.988861
16335.937500	-128.019836
16359.375000	-128.015198
16382.812500	-128.016342
16406.250000	-128.098297
16429.687500	-128.146973
16453.125000	-128.227432
16476.562500	-128.213043
16500.000000	-128.035538
16523.437500	-127.980721
16546.875000	-128.264877
16570.312500	-128.332169
16593.750000	-128.278214
16617.187500	-128.067078
16640.625000	-128.001511
16664.062500	-128.240555
16687.500000	-128.300827
16710.937500	-128.330124
16734.375000	-128.370361
16757.812500	-128.294403
16781.250000	-128.181290
16804.687500	-128.153824
16828.125000	-128.194656
16851.562500	-128.249329
16875.000000	-128.303329
16898.437500	-128.237366
16921.875000	-128.200836
16945.312500	-128.163467
16968.750000	-127.532875
16992.187500	-127.713539
17015.625000	-128.268524
17039.062500	-127.913025
17062.500000	-128.016373
17085.937500	-128.298050
17109.375000	-128.356445
17132.812500	-128.293365
17156.250000	-128.193054
17179.687500	-128.206619
17203.125000	-128.054489
17226.562500	-127.944305
17250.000000	-127.631790
17273.437500	-127.173286
17296.875000	-127.519737
17320.312500	-127.924400
17343.750000	-128.145096
17367.187500	-128.255569
17390.625000	-128.171173
17414.062500	-128.352158
17437.500000	-128.365234
17460.937500	-128.266068
17484.375000	-128.281204
17507.812500	-128.404099
17531.250000	-128.413910
17554.687500	-128.341766
17578.125000	-128.359985
17601.562500	-128.374283
17625.000000	-128.400513
17648.437500	-128.440506
17671.875000	-128.401031
17695.312500	-128.319916
17718.750000	-128.410156
17742.187500	-128.364792
17765.625000	-128.281265
17789.062500	-128.268387
17812.500000	-128.367432
17835.937500	-128.450638
17859.375000	-128.448471
17882.812500	-128.434128
17906.250000	-128.427261
17929.687500	-128.389481
17953.125000	-128.305588
17976.562500	-128.321777
18000.000000	-128.406479
18023.437500	-128.407318
18046.875000	-128.359894
18070.312500	-128.329041
18093.750000	-128.330780
18117.187500	-128.372955
18140.625000	-128.424942
18164.062500	-128.369110
18187.500000	-128.418808
18210.937500	-128.352966
18234.375000	-128.369904
18257.812500	-128.387756
18281.250000	-128.387024
18304.687500	-128.425476
18328.125000	-128.393112
18351.562500	-128.391510
18375.000000	-128.361099
18398.437500	-128.310989
18421.875000	-128.393784
18445.312500	-128.414139
18468.750000	-128.385178
18492.187500	-128.406525
18515.625000	-128.352524
18539.062500	-128.189331
18562.500000	-127.972168
18585.937500	-127.763588
18609.375000	-127.905731
18632.812500	-127.923141
18656.250000	-127.901131
18679.687500	-128.180222
