주파수 (Hz)	레벨 (dB)
23.437500	-98.648376
46.875000	-85.306938
70.312500	-70.615112
93.750000	-63.308365
117.187500	-60.234119
140.625000	-57.002506
164.062500	-56.149429
187.500000	-52.394184
210.937500	-51.873863
234.375000	-51.794308
257.812500	-50.872192
281.250000	-52.632957
304.687500	-53.025974
328.125000	-50.798542
351.562500	-48.576260
375.000000	-50.057796
398.437500	-50.220192
421.875000	-53.062737
445.312500	-51.103111
468.750000	-48.425709
492.187500	-52.103161
515.625000	-52.046280
539.062500	-53.065063
562.500000	-55.728886
585.937500	-51.174450
609.375000	-50.421566
632.812500	-50.032234
656.250000	-48.789200
679.687500	-49.081051
703.125000	-48.257271
726.562500	-54.301311
750.000000	-62.735474
773.437500	-58.298393
796.875000	-57.658779
820.312500	-59.320904
843.750000	-60.296764
867.187500	-55.227573
890.625000	-53.085888
914.062500	-61.099068
937.500000	-63.409809
960.937500	-67.064758
984.375000	-63.356586
1007.812500	-65.561554
1031.250000	-66.208519
1054.687500	-63.233757
1078.125000	-68.317352
1101.562500	-70.051880
1125.000000	-71.748550
1148.437500	-66.134216
1171.875000	-55.578480
1195.312500	-55.876953
1218.750000	-66.327385
1242.187500	-61.093182
1265.625000	-61.512058
1289.062500	-67.473785
1312.500000	-63.751549
1335.937500	-65.444817
1359.375000	-70.581406
1382.812500	-66.554573
1406.250000	-63.452396
1429.687500	-67.982704
1453.125000	-72.138351
1476.562500	-70.103386
1500.000000	-70.462883
1523.437500	-74.739128
1546.875000	-70.710655
1570.312500	-63.631573
1593.750000	-64.314278
1617.187500	-74.972565
1640.625000	-73.554680
1664.062500	-68.585907
1687.500000	-70.401596
1710.937500	-77.675804
1734.375000	-75.637207
1757.812500	-68.984871
1781.250000	-66.320618
1804.687500	-72.727036
1828.125000	-76.189659
1851.562500	-72.799934
1875.000000	-68.530640
1898.437500	-69.957108
1921.875000	-78.092392
1945.312500	-76.883957
1968.750000	-71.101616
1992.187500	-69.129700
2015.625000	-73.659798
2039.062500	-81.089813
2062.500000	-78.906815
2085.937500	-74.204987
2109.375000	-71.298508
2132.812500	-73.230064
2156.250000	-81.557449
2179.687500	-81.436790
2203.125000	-77.040581
2226.562500	-75.437874
2250.000000	-78.741486
2273.437500	-84.308601
2296.875000	-82.988792
2320.312500	-77.826263
2343.750000	-76.204887
2367.187500	-71.872482
2390.625000	-71.736496
2414.062500	-79.748665
2437.500000	-84.926155
2460.937500	-82.202850
2484.375000	-77.865601
2507.812500	-76.223450
2531.250000	-74.883469
2554.687500	-80.783691
2578.125000	-84.895538
2601.562500	-84.330559
2625.000000	-85.505447
2648.437500	-77.116943
2671.875000	-72.814148
2695.312500	-76.581429
2718.750000	-86.909378
2742.187500	-87.636826
2765.625000	-84.772720
2789.062500	-80.663231
2812.500000	-78.960617
2835.937500	-73.846291
2859.375000	-76.736732
2882.812500	-85.004982
2906.250000	-84.475945
2929.687500	-83.541664
2953.125000	-81.510254
2976.562500	-80.813927
3000.000000	-79.050598
3023.437500	-79.155472
3046.875000	-87.139809
3070.312500	-86.994629
3093.750000	-79.227013
3117.187500	-81.463661
3140.625000	-82.189102
3164.062500	-80.545601
3187.500000	-76.997215
3210.937500	-79.282654
3234.375000	-85.358109
3257.812500	-91.749283
3281.250000	-82.978027
3304.687500	-81.891228
3328.125000	-84.282532
3351.562500	-83.817200
3375.000000	-83.572342
3398.437500	-84.451393
3421.875000	-87.042725
3445.312500	-92.749046
3468.750000	-91.990898
3492.187500	-89.619301
3515.625000	-90.679237
3539.062500	-88.266457
3562.500000	-84.416008
3585.937500	-84.157928
3609.375000	-84.707207
3632.812500	-88.589218
3656.250000	-94.157990
3679.687500	-97.763710
3703.125000	-98.486221
3726.562500	-97.244232
3750.000000	-88.944473
3773.437500	-85.850510
3796.875000	-89.928131
3820.312500	-88.100067
3843.750000	-85.532356
3867.187500	-87.154846
3890.625000	-95.062271
3914.062500	-93.998459
3937.500000	-92.341347
3960.937500	-95.096687
3984.375000	-93.049667
4007.812500	-90.381111
4031.250000	-91.909760
4054.687500	-86.717293
4078.125000	-86.412476
4101.562500	-89.170731
4125.000000	-95.034927
4148.437500	-97.972748
4171.875000	-93.298943
4195.312500	-91.939728
4218.750000	-90.316757
4242.187500	-84.999718
4265.625000	-88.235641
4289.062500	-91.504570
4312.500000	-87.503838
4335.937500	-87.037247
4359.375000	-89.633263
4382.812500	-97.493286
4406.250000	-103.112144
4429.687500	-100.246788
4453.125000	-97.477844
4476.562500	-92.973206
4500.000000	-87.330032
4523.437500	-86.261375
4546.875000	-90.299492
4570.312500	-96.305267
4593.750000	-99.875282
4617.187500	-101.013245
4640.625000	-99.877396
4664.062500	-98.214828
4687.500000	-99.033554
4710.937500	-101.013840
4734.375000	-96.372879
4757.812500	-91.487701
4781.250000	-91.502449
4804.687500	-97.600555
4828.125000	-94.206734
4851.562500	-91.190994
4875.000000	-93.116737
4898.437500	-96.684906
4921.875000	-96.814774
4945.312500	-98.831253
4968.750000	-103.908226
4992.187500	-105.966660
5015.625000	-104.535019
5039.062500	-100.260178
5062.500000	-97.591522
5085.937500	-99.289253
5109.375000	-104.072678
5132.812500	-99.960876
5156.250000	-95.843369
5179.687500	-96.573639
5203.125000	-98.778534
5226.562500	-97.100533
5250.000000	-94.742455
5273.437500	-97.182617
5296.875000	-103.689926
5320.312500	-106.040154
5343.750000	-102.598854
5367.187500	-98.634850
5390.625000	-98.166344
5414.062500	-98.326080
5437.500000	-96.307465
5460.937500	-96.028801
5484.375000	-93.073189
5507.812500	-93.980461
5531.250000	-99.535011
5554.687500	-95.627785
5578.125000	-97.559052
5601.562500	-103.022469
5625.000000	-102.066895
5648.437500	-104.700111
5671.875000	-101.214851
5695.312500	-97.633575
5718.750000	-93.041985
5742.187500	-90.221458
5765.625000	-93.382500
5789.062500	-102.599426
5812.500000	-92.780670
5835.937500	-89.552834
5859.375000	-94.547066
5882.812500	-101.019814
5906.250000	-99.708260
5929.687500	-100.399315
5953.125000	-101.793114
5976.562500	-101.952759
6000.000000	-104.435699
6023.437500	-107.420616
6046.875000	-106.196457
6070.312500	-100.830437
6093.750000	-97.730156
6117.187500	-99.924484
6140.625000	-101.625534
6164.062500	-96.565315
6187.500000	-92.153778
6210.937500	-93.691124
6234.375000	-101.673607
6257.812500	-107.231102
6281.250000	-104.283302
6304.687500	-104.389000
6328.125000	-107.734039
6351.562500	-108.916718
6375.000000	-103.601944
6398.437500	-102.492302
6421.875000	-106.742691
6445.312500	-107.293411
6468.750000	-102.256012
6492.187500	-100.898468
6515.625000	-101.938568
6539.062500	-106.981506
6562.500000	-107.401642
6585.937500	-101.742668
6609.375000	-99.473862
6632.812500	-103.275177
6656.250000	-103.889397
6679.687500	-97.646904
6703.125000	-99.446671
6726.562500	-103.237930
6750.000000	-105.725983
6773.437500	-105.323936
6796.875000	-106.907066
6820.312500	-107.596146
6843.750000	-110.517021
6867.187500	-114.476013
6890.625000	-112.416580
6914.062500	-111.647926
6937.500000	-114.389023
6960.937500	-114.124756
6984.375000	-110.728317
7007.812500	-107.198875
7031.250000	-102.594673
7054.687500	-103.660332
7078.125000	-110.016548
7101.562500	-114.320648
7125.000000	-109.437233
7148.437500	-110.551308
7171.875000	-115.101723
7195.312500	-108.247910
7218.750000	-106.818398
7242.187500	-114.144714
7265.625000	-114.282005
7289.062500	-113.124893
7312.500000	-113.648613
7335.937500	-113.687508
7359.375000	-113.939186
7382.812500	-116.435631
7406.250000	-114.672890
7429.687500	-112.611710
7453.125000	-104.534500
7476.562500	-100.321754
7500.000000	-101.801224
7523.437500	-103.193436
7546.875000	-107.587669
7570.312500	-110.455956
7593.750000	-108.383026
7617.187500	-105.643837
7640.625000	-108.185570
7664.062500	-110.027290
7687.500000	-106.025108
7710.937500	-108.913986
7734.375000	-112.060623
7757.812500	-113.385574
7781.250000	-112.643745
7804.687500	-116.075241
7828.125000	-115.186867
7851.562500	-110.631073
7875.000000	-111.554840
7898.437500	-115.208374
7921.875000	-117.464211
7945.312500	-117.405128
7968.750000	-114.720512
7992.187500	-108.437546
8015.625000	-107.825508
8039.062500	-112.210632
8062.500000	-114.366013
8085.937500	-115.099785
8109.375000	-115.085793
8132.812500	-117.118019
8156.250000	-117.811035
8179.687500	-115.832565
8203.125000	-114.661407
8226.562500	-115.068138
8250.000000	-114.221153
8273.437500	-115.302917
8296.875000	-116.545952
8320.312500	-110.415573
8343.750000	-108.982346
8367.187500	-112.532372
8390.625000	-115.171173
8414.062500	-115.163651
8437.500000	-111.166008
8460.937500	-110.491119
8484.375000	-111.327652
8507.812500	-109.146835
8531.250000	-106.589836
8554.687500	-107.427490
8578.125000	-110.022964
8601.562500	-115.332298
8625.000000	-116.246147
8648.437500	-115.841972
8671.875000	-117.284645
8695.312500	-118.110077
8718.750000	-118.559029
8742.187500	-117.792419
8765.625000	-118.040375
8789.062500	-118.582779
8812.500000	-116.152481
8835.937500	-114.285278
8859.375000	-116.198097
8882.812500	-117.631744
8906.250000	-117.542206
8929.687500	-117.839066
8953.125000	-119.764320
8976.562500	-118.554237
9000.000000	-111.532104
9023.437500	-108.184258
9046.875000	-110.891357
9070.312500	-115.883965
9093.750000	-115.762299
9117.187500	-115.107582
9140.625000	-118.392754
9164.062500	-120.472939
9187.500000	-118.578514
9210.937500	-116.030472
9234.375000	-114.687881
9257.812500	-117.483566
9281.250000	-119.891663
9304.687500	-120.480225
9328.125000	-120.994446
9351.562500	-119.506401
9375.000000	-115.759209
9398.437500	-116.605003
9421.875000	-117.035149
9445.312500	-115.232254
9468.750000	-116.808968
9492.187500	-118.717827
9515.625000	-121.007912
9539.062500	-121.529022
9562.500000	-118.564110
9585.937500	-115.453773
9609.375000	-116.005295
9632.812500	-116.082054
9656.250000	-113.708336
9679.687500	-114.490089
9703.125000	-118.370247
9726.562500	-119.312347
9750.000000	-118.255363
9773.437500	-117.194550
9796.875000	-117.657829
9820.312500	-119.387375
9843.750000	-119.124779
9867.187500	-120.120377
9890.625000	-118.442062
9914.062500	-118.328728
9937.500000	-117.924210
9960.937500	-118.876251
9984.375000	-117.577629
10007.812500	-117.518227
10031.250000	-115.219048
10054.687500	-114.172089
10078.125000	-115.848145
10101.562500	-119.437180
10125.000000	-121.280701
10148.437500	-120.124382
10171.875000	-120.338478
10195.312500	-119.008736
10218.750000	-118.210548
10242.187500	-119.072418
10265.625000	-120.102707
10289.062500	-121.824547
10312.500000	-121.476837
10335.937500	-120.138168
10359.375000	-118.171761
10382.812500	-117.489700
10406.250000	-114.026459
10429.687500	-113.379883
10453.125000	-113.488693
10476.562500	-116.279610
10500.000000	-120.116707
10523.437500	-119.241158
10546.875000	-120.480942
10570.312500	-122.727081
10593.750000	-124.696594
10617.187500	-123.508736
10640.625000	-119.760628
10664.062500	-118.614594
10687.500000	-120.845139
10710.937500	-121.853287
10734.375000	-120.359055
10757.812500	-120.448730
10781.250000	-119.695328
10804.687500	-115.914406
10828.125000	-117.236877
10851.562500	-121.170006
10875.000000	-121.788231
10898.437500	-121.852005
10921.875000	-123.501152
10945.312500	-122.464478
10968.750000	-122.283783
10992.187500	-123.951225
11015.625000	-122.282074
11039.062500	-119.865761
11062.500000	-120.636078
11085.937500	-122.843277
11109.375000	-121.811790
11132.812500	-117.317436
11156.250000	-116.688728
11179.687500	-118.711182
11203.125000	-116.456718
11226.562500	-117.562035
11250.000000	-120.423950
11273.437500	-120.951035
11296.875000	-121.924194
11320.312500	-120.917946
11343.750000	-120.910187
11367.187500	-123.569687
11390.625000	-124.231430
11414.062500	-121.558357
11437.500000	-117.833878
11460.937500	-121.370171
11484.375000	-125.870125
11507.812500	-125.161697
11531.250000	-125.847923
11554.687500	-126.554909
11578.125000	-126.566826
11601.562500	-126.782692
11625.000000	-126.840530
11648.437500	-127.003227
11671.875000	-126.941711
11695.312500	-126.506882
11718.750000	-124.513329
11742.187500	-123.147720
11765.625000	-125.124489
11789.062500	-125.936287
11812.500000	-126.032166
11835.937500	-126.826019
11859.375000	-127.257256
11882.812500	-126.447655
11906.250000	-126.130974
11929.687500	-127.182304
11953.125000	-127.379921
11976.562500	-126.253250
12000.000000	-125.089828
12023.437500	-124.867523
12046.875000	-124.946297
12070.312500	-125.577965
12093.750000	-124.585091
12117.187500	-124.952843
12140.625000	-125.940346
12164.062500	-125.174934
12187.500000	-125.751465
12210.937500	-126.983398
12234.375000	-123.828072
12257.812500	-123.611671
12281.250000	-126.908569
12304.687500	-126.040176
12328.125000	-126.778908
12351.562500	-127.058243
12375.000000	-125.673759
12398.437500	-126.316521
12421.875000	-127.359352
12445.312500	-127.262085
12468.750000	-126.767982
12492.187500	-127.450317
12515.625000	-127.476532
12539.062500	-126.926811
12562.500000	-126.806526
12585.937500	-127.194038
12609.375000	-127.147644
12632.812500	-127.310608
12656.250000	-127.710976
12679.687500	-127.906662
12703.125000	-127.807480
12726.562500	-127.907852
12750.000000	-128.117752
12773.437500	-128.047516
12796.875000	-127.181999
12820.312500	-126.282280
12843.750000	-127.139122
12867.187500	-127.634575
12890.625000	-127.817596
12914.062500	-127.827232
12937.500000	-127.692810
12960.937500	-127.462143
12984.375000	-127.489677
13007.812500	-127.426987
13031.250000	-127.241165
13054.687500	-127.277924
13078.125000	-127.295357
13101.562500	-127.124184
13125.000000	-127.244606
13148.437500	-127.150406
13171.875000	-127.411552
13195.312500	-126.469406
13218.750000	-126.114471
13242.187500	-127.411453
13265.625000	-127.856110
13289.062500	-127.938904
13312.500000	-127.963646
13335.937500	-127.713882
13359.375000	-127.485703
13382.812500	-127.450623
13406.250000	-127.433891
13429.687500	-127.359024
13453.125000	-126.849602
13476.562500	-124.161407
13500.000000	-123.354454
13523.437500	-123.282295
13546.875000	-126.379608
13570.312500	-127.393150
13593.750000	-127.745544
13617.187500	-127.976799
13640.625000	-128.166153
13664.062500	-127.756989
13687.500000	-126.996361
13710.937500	-127.502327
13734.375000	-128.108826
13757.812500	-127.994858
13781.250000	-128.244705
13804.687500	-128.071396
13828.125000	-128.109802
13851.562500	-128.102020
13875.000000	-128.226059
13898.437500	-128.319199
13921.875000	-128.363037
13945.312500	-128.220901
13968.750000	-127.966217
13992.187500	-127.994453
14015.625000	-127.535629
14039.062500	-126.075401
14062.500000	-126.614403
14085.937500	-127.651169
14109.375000	-127.650261
14132.812500	-127.653038
14156.250000	-127.625877
14179.687500	-128.114044
14203.125000	-128.288177
14226.562500	-128.450378
14250.000000	-128.375809
14273.437500	-128.410614
14296.875000	-128.287018
14320.312500	-128.127228
14343.750000	-128.042084
14367.187500	-128.111252
14390.625000	-128.339981
14414.062500	-128.350861
14437.500000	-128.233948
14460.937500	-128.257584
14484.375000	-128.375717
14507.812500	-128.404053
14531.250000	-128.200607
14554.687500	-128.136566
14578.125000	-128.312546
14601.562500	-128.516617
14625.000000	-128.477737
14648.437500	-128.080505
14671.875000	-127.841499
14695.312500	-128.168808
14718.750000	-127.823891
14742.187500	-127.344772
14765.625000	-128.020889
14789.062500	-128.376816
14812.500000	-128.147171
14835.937500	-128.285706
14859.375000	-128.483658
14882.812500	-128.406097
14906.250000	-128.433670
14929.687500	-128.449387
14953.125000	-128.458145
14976.562500	-128.450119
15000.000000	-128.367828
15023.437500	-128.390396
15046.875000	-128.343903
15070.312500	-128.293076
15093.750000	-128.388809
15117.187500	-128.314377
15140.625000	-128.402847
15164.062500	-128.395660
15187.500000	-127.977463
15210.937500	-127.905365
15234.375000	-128.282074
15257.812500	-128.448975
15281.250000	-128.481949
15304.687500	-128.625137
15328.125000	-128.737000
15351.562500	-128.603485
15375.000000	-128.368759
15398.437500	-128.473785
15421.875000	-128.489929
15445.312500	-128.461319
15468.750000	-128.290848
15492.187500	-128.316452
15515.625000	-128.439804
15539.062500	-128.473755
15562.500000	-128.464050
15585.937500	-128.504105
15609.375000	-128.345337
15632.812500	-128.231705
15656.250000	-128.383087
15679.687500	-128.485229
15703.125000	-128.454941
15726.562500	-128.298965
15750.000000	-128.392105
15773.437500	-128.482224
15796.875000	-128.369202
15820.312500	-128.364502
15843.750000	-128.384705
15867.187500	-128.312851
15890.625000	-128.254364
15914.062500	-128.379059
15937.500000	-128.407806
15960.937500	-128.123367
15984.375000	-128.007309
16007.812500	-128.059586
16031.250000	-128.191132
16054.687500	-128.337280
16078.125000	-128.267380
16101.562500	-128.411728
16125.000000	-128.503403
16148.437500	-128.430405
16171.875000	-128.502579
16195.312500	-128.489761
16218.750000	-128.529785
16242.187500	-128.504074
16265.625000	-128.509338
16289.062500	-128.453339
16312.500000	-128.529465
16335.937500	-128.530014
16359.375000	-128.524567
16382.812500	-128.489227
16406.250000	-128.458374
16429.687500	-128.486740
16453.125000	-128.629501
16476.562500	-128.577469
16500.000000	-128.529770
16523.437500	-128.562744
16546.875000	-128.625534
16570.312500	-128.590652
16593.750000	-128.571625
16617.187500	-128.485504
16640.625000	-128.506927
16664.062500	-128.617996
16687.500000	-128.554642
16710.937500	-128.529358
16734.375000	-128.570877
16757.812500	-128.569717
16781.250000	-128.589386
16804.687500	-128.630402
16828.125000	-128.519318
16851.562500	-128.568054
16875.000000	-128.600876
16898.437500	-128.544876
16921.875000	-128.589706
16945.312500	-128.621506
16968.750000	-128.601318
16992.187500	-128.599976
17015.625000	-128.557877
17039.062500	-128.513641
17062.500000	-128.514709
17085.937500	-128.496506
17109.375000	-128.539413
17132.812500	-128.545578
17156.250000	-128.459961
17179.687500	-128.456863
17203.125000	-128.502701
17226.562500	-128.446426
17250.000000	-128.150650
17273.437500	-127.907379
17296.875000	-128.239349
17320.312500	-128.308792
17343.750000	-128.477402
17367.187500	-128.574387
17390.625000	-128.534454
17414.062500	-128.518723
17437.500000	-128.482971
17460.937500	-128.484543
17484.375000	-128.539032
17507.812500	-128.460739
17531.250000	-128.521439
17554.687500	-128.531860
17578.125000	-128.565826
17601.562500	-128.538513
17625.000000	-128.482498
17648.437500	-128.550415
17671.875000	-128.604965
17695.312500	-128.531143
17718.750000	-128.591110
17742.187500	-128.581741
17765.625000	-128.512299
17789.062500	-128.561890
17812.500000	-128.676071
17835.937500	-128.649200
17859.375000	-128.581772
17882.812500	-128.575775
17906.250000	-128.608597
17929.687500	-128.637665
17953.125000	-128.667755
17976.562500	-128.601624
18000.000000	-128.455780
18023.437500	-128.462936
18046.875000	-128.564163
18070.312500	-128.599152
18093.750000	-128.574356
18117.187500	-128.568390
18140.625000	-128.592087
18164.062500	-128.646713
18187.500000	-128.591858
18210.937500	-128.574402
18234.375000	-128.600311
18257.812500	-128.540833
18281.250000	-128.602875
18304.687500	-128.569992
18328.125000	-128.549896
18351.562500	-128.565292
18375.000000	-128.488098
18398.437500	-128.425858
18421.875000	-128.473648
18445.312500	-128.571960
18468.750000	-128.501343
18492.187500	-128.469086
18515.625000	-128.515671
18539.062500	-128.525696
18562.500000	-128.330658
18585.937500	-128.030304
18609.375000	-128.055328
18632.812500	-128.203461
18656.250000	-128.166351
